,GP550R
RamanShit,Intensity
258.696,98.0392
261.755,294.118
264.815,686.275
267.874,882.353
270.934,1666.67
273.994,2254.9
277.053,2450.98
280.113,2647.06
283.172,3039.22
286.232,4607.84
289.291,8137.25
292.351,11666.7
295.411,18529.4
298.47,19509.8
301.53,12451
304.589,10882.4
307.649,8529.41
310.709,7549.02
313.768,6568.63
316.828,5784.31
319.887,5392.16
322.947,4607.84
326.006,3431.37
329.066,2254.9
332.126,1470.59
335.185,1274.51
338.245,882.353
341.304,686.275
344.364,490.196
347.424,294.118
350.483,294.118
353.543,294.118
356.602,294.118
359.662,294.118
362.721,294.118
365.781,490.196
368.841,490.196
371.9,490.196
374.96,686.275
378.019,686.275
381.079,882.353
384.138,1078.43
387.198,1078.43
390.258,1078.43
393.317,1078.43
396.377,1078.43
399.436,1078.43
402.496,1078.43
405.556,1078.43
408.615,1078.43
411.675,1274.51
414.734,1470.59
417.794,2058.82
420.853,2647.06
423.913,3823.53
426.973,2647.06
430.032,2254.9
433.092,1470.59
436.151,686.275
439.211,294.118
442.271,294.118
445.33,98.0392
448.39,98.0392
451.449,98.0392
454.509,98.0392
457.568,294.118
460.628,294.118
463.688,490.196
466.747,686.275
469.807,1078.43
472.866,1666.67
475.926,2647.06
478.986,3627.45
482.045,4215.69
485.105,4215.69
488.164,4215.69
491.224,4019.61
494.283,3627.45
497.343,3039.22
500.403,2450.98
503.462,1666.67
506.522,1274.51
509.581,882.353
512.641,686.275
515.7,490.196
518.76,294.118
521.82,98.0392
524.879,98.0392
527.939,98.0392
530.998,98.0392
534.058,98.0392
537.118,294.118
540.177,294.118
543.237,294.118
546.296,294.118
549.356,294.118
552.415,490.196
555.475,294.118
558.535,294.118
561.594,294.118
564.654,294.118
567.713,294.118
570.773,294.118
573.833,294.118
576.892,294.118
579.952,294.118
583.011,294.118
586.071,294.118
589.13,294.118
592.19,490.196
595.25,686.275
598.309,882.353
601.369,1078.43
604.428,1078.43
607.488,1274.51
610.548,1470.59
613.607,1666.67
616.667,2647.06
619.726,4215.69
622.786,6568.63
625.845,8333.33
628.905,9117.65
631.965,10098
635.024,10686.3
638.084,12843.1
641.143,15000
644.203,21862.7
647.262,15000
650.322,12254.9
653.382,7156.86
656.441,3823.53
659.501,2254.9
662.56,1470.59
665.62,1078.43
668.68,882.353
671.739,686.275
674.799,490.196
677.858,294.118
680.918,294.118
683.977,294.118
687.037,98.0392
690.097,98.0392
693.156,98.0392
696.216,98.0392
699.275,98.0392
702.335,98.0392
705.395,98.0392
708.454,98.0392
711.514,98.0392
714.573,98.0392
717.633,98.0392
720.692,98.0392
723.752,98.0392
726.812,98.0392
729.871,98.0392
732.931,98.0392
735.99,98.0392
739.05,98.0392
742.11,98.0392
745.169,98.0392
748.229,98.0392
751.288,98.0392
754.348,98.0392
757.407,98.0392
760.467,98.0392
763.527,98.0392
766.586,98.0392
769.646,98.0392
772.705,98.0392
775.765,98.0392
778.824,294.118
781.884,294.118
784.944,294.118
788.003,490.196
791.063,686.275
794.122,882.353
797.182,882.353
800.242,1078.43
803.301,882.353
806.361,882.353
809.42,686.275
812.48,686.275
815.539,490.196
818.599,294.118
821.659,294.118
824.718,98.0392
827.778,98.0392
830.837,98.0392
833.897,98.0392
836.957,98.0392
840.016,98.0392
843.076,98.0392
846.135,98.0392
849.195,98.0392
852.254,98.0392
855.314,294.118
858.374,294.118
861.433,294.118
864.493,490.196
867.552,686.275
870.612,882.353
873.671,882.353
876.731,1078.43
879.791,882.353
882.85,882.353
885.91,882.353
888.969,882.353
892.029,882.353
895.089,882.353
898.148,882.353
901.208,686.275
904.267,686.275
907.327,490.196
910.386,490.196
913.446,294.118
916.506,294.118
919.565,294.118
922.625,294.118
925.684,98.0392
928.744,98.0392
931.804,98.0392
934.863,98.0392
937.923,98.0392
940.982,98.0392
944.042,98.0392
947.101,98.0392
950.161,98.0392
953.221,98.0392
956.28,98.0392
959.34,98.0392
962.399,98.0392
965.459,98.0392
968.519,98.0392
971.578,294.118
974.638,294.118
977.697,490.196
980.757,686.275
983.816,1078.43
986.876,1470.59
989.936,2254.9
992.995,3431.37
996.055,5000
999.114,7941.18
1002.17,12254.9
1005.23,19117.6
1008.29,23431.4
1011.35,26960.8
1014.41,23235.3
1017.47,19509.8
1020.53,12647.1
1023.59,8137.25
1026.65,6372.55
1029.71,5588.24
1032.77,6372.55
1035.83,6764.71
1038.89,8529.41
1041.95,11862.7
1045.01,15000
1048.07,15392.2
1051.13,13823.5
1054.19,13627.5
1057.25,13431.4
1060.31,13039.2
1063.37,10490.2
1066.43,6176.47
1069.48,2843.14
1072.54,1666.67
1075.6,882.353
1078.66,490.196
1081.72,294.118
1084.78,98.0392
1087.84,98.0392
1090.9,98.0392
1093.96,294.118
1097.02,294.118
1100.08,686.275
1103.14,1274.51
1106.2,1862.75
1109.26,2254.9
1112.32,1862.75
1115.38,1666.67
1118.44,1274.51
1121.5,882.353
1124.56,686.275
1127.62,294.118
1130.68,294.118
1133.74,294.118
1136.8,294.118
1139.86,294.118
1142.91,490.196
1145.97,490.196
1149.03,686.275
1152.09,686.275
1155.15,686.275
1158.21,882.353
1161.27,1078.43
1164.33,1274.51
1167.39,1274.51
1170.45,1470.59
1173.51,1274.51
1176.57,1274.51
1179.63,1078.43
1182.69,882.353
1185.75,882.353
1188.81,882.353
1191.87,686.275
1194.93,490.196
1197.99,294.118
1201.05,294.118
1204.11,294.118
1207.17,294.118
1210.23,490.196
1213.29,490.196
1216.34,686.275
1219.4,686.275
1222.46,686.275
1225.52,686.275
1228.58,686.275
1231.64,686.275
1234.7,686.275
1237.76,490.196
1240.82,294.118
1243.88,294.118
1246.94,294.118
1250,294.118
1253.06,294.118
1256.12,98.0392
1259.18,98.0392
1262.24,98.0392
1265.3,98.0392
1268.36,294.118
1271.42,294.118
1274.48,490.196
1277.54,490.196
1280.6,490.196
1283.66,686.275
1286.71,490.196
1289.77,490.196
1292.83,294.118
1295.89,294.118
1298.95,98.0392
1302.01,98.0392
1305.07,98.0392
1308.13,98.0392
1311.19,98.0392
1314.25,98.0392
1317.31,98.0392
1320.37,294.118
1323.43,294.118
1326.49,490.196
1329.55,490.196
1332.61,686.275
1335.67,1078.43
1338.73,1078.43
1341.79,1274.51
1344.85,1274.51
1347.91,1274.51
1350.97,1274.51
1354.03,1078.43
1357.09,882.353
1360.14,686.275
1363.2,490.196
1366.26,490.196
1369.32,294.118
1372.38,294.118
1375.44,294.118
1378.5,294.118
1381.56,98.0392
1384.62,98.0392
1387.68,98.0392
1390.74,294.118
1393.8,294.118
1396.86,294.118
1399.92,294.118
1402.98,294.118
1406.04,490.196
1409.1,490.196
1412.16,490.196
1415.22,294.118
1418.28,294.118
1421.34,294.118
1424.4,294.118
1427.46,98.0392
1430.52,98.0392
1433.57,98.0392
1436.63,98.0392
1439.69,98.0392
1442.75,98.0392
1445.81,98.0392
1448.87,98.0392
1451.93,98.0392
1454.99,98.0392
1458.05,98.0392
1461.11,98.0392
1464.17,98.0392
1467.23,98.0392
1470.29,294.118
1473.35,294.118
1476.41,294.118
1479.47,294.118
1482.53,294.118
1485.59,294.118
1488.65,294.118
1491.71,294.118
1494.77,294.118
1497.83,294.118
1500.89,294.118
1503.95,294.118
1507,294.118
1510.06,294.118
1513.12,294.118
1516.18,294.118
1519.24,294.118
1522.3,294.118
1525.36,294.118
1528.42,294.118
1531.48,294.118
1534.54,294.118
1537.6,294.118
1540.66,294.118
1543.72,294.118
1546.78,294.118
1549.84,490.196
1552.9,490.196
1555.96,490.196
1559.02,490.196
1562.08,686.275
1565.14,686.275
1568.2,686.275
1571.26,882.353
1574.32,686.275
1577.38,686.275
1580.43,686.275
1583.49,490.196
1586.55,490.196
1589.61,490.196
1592.67,490.196
1595.73,686.275
1598.79,686.275
1601.85,686.275
1604.91,686.275
1607.97,686.275
1611.03,490.196
1614.09,490.196
1617.15,490.196
1620.21,294.118
1623.27,294.118
1626.33,294.118
1629.39,98.0392
1632.45,98.0392
1635.51,98.0392
1638.57,98.0392
1641.63,98.0392
1644.69,98.0392
1647.75,98.0392
1650.81,98.0392
1653.86,98.0392
1656.92,98.0392
1659.98,98.0392
1663.04,98.0392
1666.1,98.0392
1669.16,98.0392
1672.22,98.0392
1675.28,98.0392
1678.34,98.0392
1681.4,98.0392
1684.46,98.0392
1687.52,98.0392
1690.58,98.0392
1693.64,98.0392
1696.7,98.0392
1699.76,98.0392
1702.82,294.118
1705.88,294.118
1708.94,294.118
1712,294.118
1715.06,98.0392
1718.12,98.0392
1721.18,98.0392
1724.24,98.0392
1727.29,98.0392
1730.35,98.0392
1733.41,294.118
1736.47,294.118
1739.53,294.118
1742.59,294.118
1745.65,294.118
1748.71,294.118
1751.77,294.118
1754.83,294.118
1757.89,294.118
1760.95,294.118
1764.01,294.118
1767.07,294.118
1770.13,294.118
1773.19,490.196
1776.25,490.196
1779.31,490.196
1782.37,294.118
1785.43,294.118
1788.49,294.118
1791.55,294.118
1794.61,294.118
1797.67,294.118
1800.72,294.118
1803.78,294.118
1806.84,294.118
1809.9,294.118
1812.96,294.118
1816.02,294.118
1819.08,294.118
1822.14,294.118
1825.2,294.118
1828.26,294.118
1831.32,294.118
1834.38,294.118
1837.44,294.118
1840.5,294.118
1843.56,294.118
1846.62,294.118
1849.68,294.118
1852.74,294.118
1855.8,294.118
1858.86,294.118
1861.92,294.118
1864.98,294.118
1868.04,294.118
1871.1,294.118
1874.15,294.118
1877.21,294.118
1880.27,294.118
1883.33,294.118
1886.39,294.118
1889.45,294.118
1892.51,98.0392
1895.57,98.0392
1898.63,98.0392
1901.69,98.0392
1904.75,98.0392
1907.81,98.0392
1910.87,98.0392
1913.93,98.0392
1916.99,98.0392
1920.05,98.0392
1923.11,98.0392
1926.17,98.0392
1929.23,98.0392
1932.29,98.0392
1935.35,98.0392
1938.41,98.0392
1941.47,98.0392
1944.52,98.0392
1947.58,98.0392
1950.64,98.0392
1953.7,98.0392
1956.76,98.0392
1959.82,98.0392
1962.88,98.0392
1965.94,98.0392
1969,98.0392
1972.06,98.0392
1975.12,98.0392
1978.18,98.0392
1981.24,98.0392
1984.3,98.0392
1987.36,294.118
1990.42,294.118
1993.48,294.118
1996.54,294.118
1999.6,294.118
2002.66,294.118
2005.72,98.0392
2008.78,98.0392
2011.84,98.0392
2014.9,98.0392
2017.95,98.0392
2021.01,98.0392
2024.07,98.0392
2027.13,98.0392
2030.19,98.0392
2033.25,98.0392
2036.31,98.0392
2039.37,98.0392
2042.43,294.118
2045.49,294.118
2048.55,294.118
2051.61,294.118
2054.67,294.118
2057.73,294.118
2060.79,294.118
2063.85,294.118
2066.91,294.118
2069.97,294.118
2073.03,294.118
2076.09,294.118
2079.15,294.118
2082.21,294.118
2085.27,294.118
2088.33,294.118
2091.38,294.118
2094.44,294.118
2097.5,294.118
2100.56,294.118
2103.62,294.118
2106.68,294.118
2109.74,294.118
2112.8,294.118
2115.86,294.118
2118.92,294.118
2121.98,294.118
2125.04,294.118
2128.1,294.118
2131.16,294.118
2134.22,294.118
2137.28,294.118
2140.34,294.118
2143.4,294.118
2146.46,294.118
2149.52,294.118
2152.58,98.0392
2155.64,98.0392
2158.7,98.0392
2161.76,98.0392
2164.81,98.0392
2167.87,98.0392
2170.93,98.0392
2173.99,98.0392
2177.05,294.118
2180.11,294.118
2183.17,294.118
2186.23,294.118
2189.29,294.118
2192.35,98.0392
2195.41,98.0392
2198.47,98.0392
2201.53,98.0392
2204.59,98.0392
2207.65,294.118
2210.71,294.118
2213.77,294.118
2216.83,294.118
2219.89,294.118
2222.95,294.118
2226.01,294.118
2229.07,294.118
2232.13,294.118
2235.19,294.118
2238.24,98.0392
2241.3,98.0392
2244.36,98.0392
2247.42,98.0392
2250.48,98.0392
2253.54,294.118
2256.6,294.118
2259.66,294.118
2262.72,294.118
2265.78,294.118
2268.84,294.118
2271.9,294.118
2274.96,294.118
2278.02,294.118
2281.08,294.118
2284.14,294.118
2287.2,294.118
2290.26,294.118
