,GP550R
RamanShit,Intensity
261.878,-177.866
264.928,-177.866
267.978,-177.866
271.027,-177.866
274.077,-177.866
277.127,-177.866
280.177,-177.866
283.226,-177.866
286.276,-177.866
289.326,-177.866
292.376,-177.866
295.425,-177.866
298.475,-177.866
301.525,-177.866
304.575,-177.866
307.624,-177.866
310.674,-177.866
313.724,-177.866
316.774,-177.866
319.823,-177.866
322.873,-177.866
325.923,-177.866
328.973,-177.866
332.022,-177.866
335.072,-177.866
338.122,-177.866
341.172,-177.866
344.222,-177.866
347.271,-177.866
350.321,-177.866
353.371,-177.866
356.421,-177.866
359.47,-177.866
362.52,-177.866
365.57,-177.866
368.62,-177.866
371.669,-177.866
374.719,-177.866
377.769,-177.866
380.819,-177.866
383.868,-177.866
386.918,-177.866
389.968,-177.866
393.018,-177.866
396.067,98.8142
399.117,98.8142
402.167,98.8142
405.217,98.8142
408.266,98.8142
411.316,98.8142
414.366,98.8142
417.416,375.494
420.465,375.494
423.515,652.174
426.565,1205.53
429.615,2312.25
432.665,5079.05
435.714,9505.93
438.764,15316.2
441.814,16146.2
444.864,11719.4
447.913,11719.4
450.963,11166
454.013,9782.61
457.063,6185.77
460.112,3142.29
463.162,1758.89
466.212,1205.53
469.262,928.854
472.311,652.174
475.361,375.494
478.411,375.494
481.461,98.8142
484.51,98.8142
487.56,98.8142
490.61,98.8142
493.66,98.8142
496.709,98.8142
499.759,98.8142
502.809,-177.866
505.859,-177.866
508.909,-177.866
511.958,-177.866
515.008,-177.866
518.058,-177.866
521.108,-177.866
524.157,-177.866
527.207,-177.866
530.257,-177.866
533.307,-177.866
536.356,-177.866
539.406,-177.866
542.456,-177.866
545.506,-177.866
548.555,-177.866
551.605,-177.866
554.655,-177.866
557.705,-177.866
560.754,-177.866
563.804,-177.866
566.854,98.8142
569.904,98.8142
572.953,98.8142
576.003,98.8142
579.053,98.8142
582.103,98.8142
585.152,98.8142
588.202,98.8142
591.252,98.8142
594.302,98.8142
597.352,375.494
600.401,652.174
603.451,1205.53
606.501,1205.53
609.551,1205.53
612.6,928.854
615.65,928.854
618.7,652.174
621.75,375.494
624.799,375.494
627.849,375.494
630.899,375.494
633.949,375.494
636.998,375.494
640.048,652.174
643.098,652.174
646.148,652.174
649.197,375.494
652.247,98.8142
655.297,98.8142
658.347,98.8142
661.396,98.8142
664.446,98.8142
667.496,98.8142
670.546,98.8142
673.596,98.8142
676.645,-177.866
679.695,-177.866
682.745,-177.866
685.795,-177.866
688.844,-177.866
691.894,-177.866
694.944,-177.866
697.994,-177.866
701.043,-177.866
704.093,-177.866
707.143,-177.866
710.193,-177.866
713.242,-177.866
716.292,-177.866
719.342,-177.866
722.392,-177.866
725.441,-177.866
728.491,-177.866
731.541,-177.866
734.591,-177.866
737.64,-177.866
740.69,-177.866
743.74,-177.866
746.79,-177.866
749.839,-177.866
752.889,-177.866
755.939,-177.866
758.989,-177.866
762.039,-177.866
765.088,-177.866
768.138,-177.866
771.188,-177.866
774.238,-177.866
777.287,-177.866
780.337,-177.866
783.387,-177.866
786.437,-177.866
789.486,-177.866
792.536,-177.866
795.586,-177.866
798.636,-177.866
801.685,-177.866
804.735,-177.866
807.785,-177.866
810.835,-177.866
813.884,-177.866
816.934,-177.866
819.984,-177.866
823.034,-177.866
826.083,-177.866
829.133,-177.866
832.183,-177.866
835.233,-177.866
838.283,-177.866
841.332,-177.866
844.382,-177.866
847.432,-177.866
850.482,-177.866
853.531,-177.866
856.581,-177.866
859.631,98.8142
862.681,98.8142
865.73,98.8142
868.78,98.8142
871.83,98.8142
874.88,98.8142
877.929,98.8142
880.979,98.8142
884.029,-177.866
887.079,-177.866
890.128,-177.866
893.178,-177.866
896.228,-177.866
899.278,-177.866
902.327,-177.866
905.377,-177.866
908.427,-177.866
911.477,-177.866
914.526,-177.866
917.576,-177.866
920.626,-177.866
923.676,-177.866
926.726,-177.866
929.775,-177.866
932.825,-177.866
935.875,-177.866
938.925,98.8142
941.974,98.8142
945.024,98.8142
948.074,375.494
951.124,375.494
954.173,652.174
957.223,1205.53
960.273,1758.89
963.323,2865.61
966.372,5079.05
969.422,9505.93
972.472,20019.8
975.522,27490.1
978.571,43260.9
981.621,27490.1
984.671,24170
987.721,15592.9
990.77,8399.21
993.82,5079.05
996.87,3418.97
999.92,2312.25
1002.97,1758.89
1006.02,1205.53
1009.07,928.854
1012.12,652.174
1015.17,375.494
1018.22,375.494
1021.27,98.8142
1024.32,98.8142
1027.37,98.8142
1030.42,98.8142
1033.47,98.8142
1036.52,98.8142
1039.57,98.8142
1042.62,98.8142
1045.67,375.494
1048.72,652.174
1051.77,928.854
1054.82,928.854
1057.87,1205.53
1060.91,1205.53
1063.96,1205.53
1067.01,928.854
1070.06,928.854
1073.11,652.174
1076.16,652.174
1079.21,375.494
1082.26,375.494
1085.31,375.494
1088.36,98.8142
1091.41,98.8142
1094.46,98.8142
1097.51,98.8142
1100.56,98.8142
1103.61,98.8142
1106.66,98.8142
1109.71,98.8142
1112.76,98.8142
1115.81,98.8142
1118.86,98.8142
1121.91,98.8142
1124.96,98.8142
1128.01,98.8142
1131.06,375.494
1134.11,375.494
1137.16,652.174
1140.21,652.174
1143.26,928.854
1146.31,1482.21
1149.36,2035.57
1152.41,2312.25
1155.46,2588.93
1158.51,2588.93
1161.56,2588.93
1164.61,2312.25
1167.66,2035.57
1170.71,1758.89
1173.76,1482.21
1176.81,1205.53
1179.86,928.854
1182.91,652.174
1185.96,652.174
1189,375.494
1192.05,375.494
1195.1,98.8142
1198.15,98.8142
1201.2,98.8142
1204.25,98.8142
1207.3,98.8142
1210.35,-177.866
1213.4,-177.866
1216.45,-177.866
1219.5,-177.866
1222.55,-177.866
1225.6,-177.866
1228.65,-177.866
1231.7,-177.866
1234.75,-177.866
1237.8,98.8142
1240.85,98.8142
1243.9,98.8142
1246.95,98.8142
1250,98.8142
1253.05,98.8142
1256.1,98.8142
1259.15,98.8142
1262.2,98.8142
1265.25,98.8142
1268.3,98.8142
1271.35,98.8142
1274.4,98.8142
1277.45,98.8142
1280.5,98.8142
1283.55,98.8142
1286.6,98.8142
1289.65,98.8142
1292.7,-177.866
1295.75,-177.866
1298.8,-177.866
1301.85,-177.866
1304.9,-177.866
1307.95,-177.866
1311,-177.866
1314.04,-177.866
1317.09,-177.866
1320.14,-177.866
1323.19,-177.866
1326.24,-177.866
1329.29,-177.866
1332.34,-177.866
1335.39,-177.866
1338.44,-177.866
1341.49,-177.866
1344.54,-177.866
1347.59,-177.866
1350.64,-177.866
1353.69,-177.866
1356.74,-177.866
1359.79,-177.866
1362.84,-177.866
1365.89,-177.866
1368.94,-177.866
1371.99,-177.866
1375.04,-177.866
1378.09,-177.866
1381.14,-177.866
1384.19,-177.866
1387.24,-177.866
1390.29,-177.866
1393.34,98.8142
1396.39,98.8142
1399.44,98.8142
1402.49,98.8142
1405.54,98.8142
1408.59,98.8142
1411.64,98.8142
1414.69,98.8142
1417.74,98.8142
1420.79,98.8142
1423.84,98.8142
1426.89,98.8142
1429.94,98.8142
1432.99,98.8142
1436.04,98.8142
1439.09,98.8142
1442.13,98.8142
1445.18,98.8142
1448.23,98.8142
1451.28,98.8142
1454.33,98.8142
1457.38,98.8142
1460.43,98.8142
1463.48,98.8142
1466.53,98.8142
1469.58,98.8142
1472.63,98.8142
1475.68,98.8142
1478.73,98.8142
1481.78,98.8142
1484.83,98.8142
1487.88,98.8142
1490.93,98.8142
1493.98,98.8142
1497.03,98.8142
1500.08,98.8142
1503.13,98.8142
1506.18,98.8142
1509.23,98.8142
1512.28,98.8142
1515.33,98.8142
1518.38,98.8142
1521.43,98.8142
1524.48,98.8142
1527.53,98.8142
1530.58,98.8142
1533.63,98.8142
1536.68,98.8142
1539.73,98.8142
1542.78,98.8142
1545.83,98.8142
1548.88,98.8142
1551.93,98.8142
1554.98,98.8142
1558.03,98.8142
1561.08,98.8142
1564.13,98.8142
1567.17,98.8142
1570.22,98.8142
1573.27,98.8142
1576.32,98.8142
1579.37,98.8142
1582.42,98.8142
1585.47,98.8142
1588.52,98.8142
1591.57,98.8142
1594.62,98.8142
1597.67,98.8142
1600.72,98.8142
1603.77,98.8142
1606.82,98.8142
1609.87,98.8142
1612.92,98.8142
1615.97,98.8142
1619.02,98.8142
1622.07,98.8142
1625.12,98.8142
1628.17,98.8142
1631.22,98.8142
1634.27,98.8142
1637.32,98.8142
1640.37,98.8142
1643.42,98.8142
1646.47,98.8142
1649.52,98.8142
1652.57,-177.866
1655.62,-177.866
1658.67,-177.866
1661.72,-177.866
1664.77,-177.866
1667.82,-177.866
1670.87,-177.866
1673.92,-177.866
1676.97,-177.866
1680.02,-177.866
1683.07,-177.866
1686.12,-177.866
1689.17,-177.866
1692.22,-177.866
1695.26,-177.866
1698.31,-177.866
1701.36,-177.866
1704.41,-177.866
1707.46,-177.866
1710.51,-177.866
1713.56,-177.866
1716.61,-177.866
1719.66,-177.866
1722.71,-177.866
1725.76,-177.866
1728.81,-177.866
1731.86,-177.866
1734.91,-177.866
1737.96,-177.866
1741.01,-177.866
1744.06,-177.866
1747.11,-177.866
1750.16,-177.866
1753.21,-177.866
1756.26,-177.866
1759.31,-177.866
1762.36,-177.866
1765.41,-177.866
1768.46,-177.866
1771.51,98.8142
1774.56,98.8142
1777.61,98.8142
1780.66,98.8142
1783.71,98.8142
1786.76,-177.866
1789.81,-177.866
1792.86,-177.866
1795.91,-177.866
1798.96,-177.866
1802.01,-177.866
1805.06,-177.866
1808.11,98.8142
1811.16,98.8142
1814.21,-177.866
1817.26,-177.866
1820.3,-177.866
1823.35,-177.866
1826.4,-177.866
1829.45,-177.866
1832.5,-177.866
1835.55,-177.866
1838.6,-177.866
1841.65,-177.866
1844.7,-177.866
1847.75,-177.866
1850.8,-177.866
1853.85,-177.866
1856.9,-177.866
1859.95,-177.866
1863,-177.866
1866.05,-177.866
1869.1,-177.866
1872.15,-177.866
1875.2,-177.866
1878.25,-177.866
1881.3,-177.866
1884.35,-177.866
1887.4,-177.866
1890.45,-177.866
1893.5,-177.866
1896.55,-177.866
1899.6,-177.866
1902.65,-177.866
1905.7,-177.866
1908.75,-177.866
1911.8,-177.866
1914.85,-177.866
1917.9,-177.866
1920.95,-177.866
1924,-177.866
1927.05,-177.866
1930.1,-177.866
1933.15,-177.866
1936.2,98.8142
1939.25,98.8142
1942.3,98.8142
1945.35,98.8142
1948.39,98.8142
1951.44,98.8142
1954.49,98.8142
1957.54,98.8142
1960.59,98.8142
1963.64,98.8142
1966.69,98.8142
1969.74,98.8142
1972.79,98.8142
1975.84,98.8142
1978.89,98.8142
1981.94,98.8142
1984.99,-177.866
1988.04,-177.866
1991.09,-177.866
1994.14,-177.866
1997.19,-177.866
2000.24,-177.866
2003.29,-177.866
2006.34,-177.866
2009.39,-177.866
2012.44,-177.866
2015.49,-177.866
2018.54,-177.866
2021.59,-177.866
2024.64,-177.866
2027.69,-177.866
2030.74,-177.866
2033.79,-177.866
2036.84,-177.866
2039.89,-177.866
2042.94,-177.866
2045.99,-177.866
2049.04,98.8142
2052.09,98.8142
2055.14,98.8142
2058.19,98.8142
2061.24,98.8142
2064.29,-177.866
2067.34,-177.866
2070.39,-177.866
2073.43,-177.866
2076.48,-177.866
2079.53,-177.866
2082.58,-177.866
2085.63,-177.866
2088.68,-177.866
2091.73,98.8142
2094.78,98.8142
2097.83,98.8142
2100.88,98.8142
2103.93,98.8142
2106.98,98.8142
2110.03,98.8142
2113.08,98.8142
2116.13,98.8142
2119.18,98.8142
2122.23,98.8142
2125.28,98.8142
2128.33,98.8142
2131.38,98.8142
2134.43,98.8142
2137.48,98.8142
2140.53,98.8142
2143.58,98.8142
2146.63,98.8142
2149.68,98.8142
2152.73,98.8142
2155.78,98.8142
2158.83,98.8142
2161.88,98.8142
2164.93,-177.866
2167.98,-177.866
2171.03,-177.866
2174.08,-177.866
2177.13,-177.866
2180.18,98.8142
2183.23,98.8142
2186.28,98.8142
2189.33,98.8142
2192.38,98.8142
2195.43,98.8142
2198.48,98.8142
2201.52,98.8142
2204.57,98.8142
2207.62,98.8142
2210.67,-177.866
2213.72,-177.866
2216.77,-177.866
2219.82,-177.866
2222.87,98.8142
2225.92,98.8142
2228.97,98.8142
2232.02,98.8142
2235.07,98.8142
2238.12,-177.866
2241.17,-177.866
2244.22,-177.866
2247.27,-177.866
2250.32,98.8142
2253.37,98.8142
2256.42,98.8142
2259.47,98.8142
2262.52,98.8142
2265.57,98.8142
2268.62,98.8142
2271.67,98.8142
2274.72,98.8142
2277.77,98.8142
2280.82,98.8142
2283.87,98.8142
2286.92,98.8142
2289.97,98.8142
