,GP550R
RamanShit,Intensity
258.762,104.331
261.817,364.173
264.871,624.016
267.926,1100.39
270.981,1836.61
274.035,2183.07
277.09,2572.83
280.145,2183.07
283.199,2009.84
286.254,1836.61
289.309,1706.69
292.363,1750
295.418,1750
298.473,1836.61
301.527,1923.23
304.582,1793.31
307.637,1836.61
310.691,1879.92
313.746,2269.69
316.801,3005.91
319.855,4305.12
322.91,4391.73
325.965,3265.75
329.019,3092.52
332.074,2702.76
335.129,2919.29
338.183,2962.6
341.238,3005.91
344.293,4391.73
347.347,3958.66
350.402,2962.6
353.457,2486.22
356.511,1576.77
359.566,797.244
362.621,277.559
365.675,61.0236
368.73,61.0236
371.785,61.0236
374.839,104.331
377.894,190.945
380.949,234.252
384.003,494.094
387.058,1100.39
390.113,1490.16
393.167,1750
396.222,1490.16
399.277,1403.54
402.331,1013.78
405.386,753.937
408.441,624.016
411.495,797.244
414.55,1143.7
417.605,1836.61
420.659,2529.53
423.714,3049.21
426.768,3612.2
429.823,3438.98
432.878,3135.83
435.932,2702.76
438.987,1836.61
442.042,1403.54
445.096,1316.93
448.151,1143.7
451.206,753.937
454.26,320.866
457.315,147.638
460.37,147.638
463.424,104.331
466.479,190.945
469.534,234.252
472.588,364.173
475.643,580.709
478.698,1013.78
481.752,1836.61
484.807,3395.67
487.862,3568.9
490.916,2269.69
493.971,1750
497.026,927.165
500.08,667.323
503.135,624.016
506.19,624.016
509.244,667.323
512.299,580.709
515.354,537.402
518.408,450.787
521.463,320.866
524.518,234.252
527.572,234.252
530.627,234.252
533.682,234.252
536.736,407.48
539.791,624.016
542.846,753.937
545.9,840.551
548.955,927.165
552.01,1013.78
555.064,1230.31
558.119,1446.85
561.174,1750
564.228,1793.31
567.283,1533.46
570.338,1533.46
573.392,1490.16
576.447,1446.85
579.502,1360.24
582.556,1273.62
585.611,1143.7
588.666,1013.78
591.72,927.165
594.775,797.244
597.83,710.63
600.884,710.63
603.939,753.937
606.994,840.551
610.048,1143.7
613.103,1403.54
616.158,1576.77
619.212,1663.39
622.267,1966.54
625.322,1533.46
628.376,1316.93
631.431,1057.09
634.486,840.551
637.54,883.858
640.595,883.858
643.65,1013.78
646.704,840.551
649.759,797.244
652.814,624.016
655.868,364.173
658.923,234.252
661.977,234.252
665.032,277.559
668.087,407.48
671.141,797.244
674.196,1273.62
677.251,1490.16
680.305,1750
683.36,1446.85
686.415,1143.7
689.469,797.244
692.524,624.016
695.579,753.937
698.633,797.244
701.688,927.165
704.743,1879.92
707.797,3482.28
710.852,5301.18
713.907,8895.67
716.961,9242.13
720.016,6210.63
723.071,4998.03
726.125,2919.29
729.18,1706.69
732.235,1057.09
735.289,710.63
738.344,450.787
741.399,234.252
744.453,147.638
747.508,104.331
750.563,104.331
753.617,104.331
756.672,104.331
759.727,147.638
762.781,147.638
765.836,190.945
768.891,277.559
771.945,190.945
775,147.638
778.055,147.638
781.109,147.638
784.164,104.331
787.219,61.0236
790.273,61.0236
793.328,61.0236
796.383,61.0236
799.437,61.0236
802.492,104.331
805.547,147.638
808.601,190.945
811.656,277.559
814.711,320.866
817.765,277.559
820.82,234.252
823.875,234.252
826.929,234.252
829.984,234.252
833.039,277.559
836.093,277.559
839.148,277.559
842.203,320.866
845.257,320.866
848.312,364.173
851.367,364.173
854.421,407.48
857.476,407.48
860.531,450.787
863.585,450.787
866.64,450.787
869.695,450.787
872.749,450.787
875.804,450.787
878.859,494.094
881.913,494.094
884.968,494.094
888.023,494.094
891.077,580.709
894.132,710.63
897.186,970.472
900.241,1316.93
903.296,1836.61
906.35,1879.92
909.405,1446.85
912.46,1273.62
915.514,883.858
918.569,624.016
921.624,450.787
924.678,364.173
927.733,277.559
930.788,277.559
933.842,277.559
936.897,277.559
939.952,234.252
943.006,277.559
946.061,407.48
949.116,667.323
952.17,1057.09
955.225,1490.16
958.28,2053.15
961.334,2832.68
964.389,3309.06
967.444,3872.05
970.498,3568.9
973.553,3482.28
976.608,3395.67
979.662,3265.75
982.717,3092.52
985.772,3049.21
988.826,2746.06
991.881,2312.99
994.936,2053.15
997.99,1923.23
1001.05,1923.23
1004.1,1836.61
1007.15,1620.08
1010.21,1273.62
1013.26,883.858
1016.32,494.094
1019.37,320.866
1022.43,190.945
1025.48,61.0236
1028.54,61.0236
1031.59,61.0236
1034.65,61.0236
1037.7,61.0236
1040.76,147.638
1043.81,277.559
1046.86,364.173
1049.92,407.48
1052.97,537.402
1056.03,667.323
1059.08,667.323
1062.14,753.937
1065.19,624.016
1068.25,494.094
1071.3,407.48
1074.36,407.48
1077.41,450.787
1080.47,494.094
1083.52,840.551
1086.58,883.858
1089.63,494.094
1092.68,450.787
1095.74,320.866
1098.79,277.559
1101.85,234.252
1104.9,147.638
1107.96,147.638
1111.01,147.638
1114.07,147.638
1117.12,147.638
1120.18,147.638
1123.23,147.638
1126.29,147.638
1129.34,234.252
1132.4,320.866
1135.45,450.787
1138.5,667.323
1141.56,840.551
1144.61,1013.78
1147.67,1143.7
1150.72,1316.93
1153.78,1446.85
1156.83,1576.77
1159.89,1706.69
1162.94,2009.84
1166,2269.69
1169.05,2356.3
1172.11,2486.22
1175.16,2053.15
1178.22,1620.08
1181.27,1273.62
1184.32,883.858
1187.38,624.016
1190.43,537.402
1193.49,450.787
1196.54,320.866
1199.6,234.252
1202.65,320.866
1205.71,407.48
1208.76,537.402
1211.82,710.63
1214.87,883.858
1217.93,1057.09
1220.98,1100.39
1224.04,1187.01
1227.09,1273.62
1230.14,1057.09
1233.2,927.165
1236.25,797.244
1239.31,710.63
1242.36,580.709
1245.42,407.48
1248.47,320.866
1251.53,277.559
1254.58,234.252
1257.64,147.638
1260.69,147.638
1263.75,147.638
1266.8,190.945
1269.86,320.866
1272.91,494.094
1275.96,667.323
1279.02,797.244
1282.07,797.244
1285.13,883.858
1288.18,753.937
1291.24,667.323
1294.29,450.787
1297.35,277.559
1300.4,277.559
1303.46,234.252
1306.51,234.252
1309.57,234.252
1312.62,234.252
1315.68,234.252
1318.73,234.252
1321.78,277.559
1324.84,364.173
1327.89,537.402
1330.95,667.323
1334,927.165
1337.06,1230.31
1340.11,1576.77
1343.17,1750
1346.22,1836.61
1349.28,1750
1352.33,1663.39
1355.39,1490.16
1358.44,1316.93
1361.5,1100.39
1364.55,927.165
1367.6,710.63
1370.66,494.094
1373.71,494.094
1376.77,450.787
1379.82,364.173
1382.88,277.559
1385.93,277.559
1388.99,277.559
1392.04,277.559
1395.1,320.866
1398.15,407.48
1401.21,494.094
1404.26,537.402
1407.32,580.709
1410.37,580.709
1413.42,580.709
1416.48,494.094
1419.53,364.173
1422.59,320.866
1425.64,190.945
1428.7,61.0236
1431.75,61.0236
1434.81,61.0236
1437.86,61.0236
1440.92,104.331
1443.97,147.638
1447.03,147.638
1450.08,147.638
1453.14,147.638
1456.19,147.638
1459.24,147.638
1462.3,147.638
1465.35,147.638
1468.41,190.945
1471.46,277.559
1474.52,277.559
1477.57,277.559
1480.63,320.866
1483.68,320.866
1486.74,320.866
1489.79,320.866
1492.85,320.866
1495.9,320.866
1498.95,277.559
1502.01,234.252
1505.06,190.945
1508.12,190.945
1511.17,190.945
1514.23,190.945
1517.28,234.252
1520.34,234.252
1523.39,234.252
1526.45,234.252
1529.5,234.252
1532.56,234.252
1535.61,234.252
1538.67,234.252
1541.72,277.559
1544.77,320.866
1547.83,364.173
1550.88,580.709
1553.94,710.63
1556.99,710.63
1560.05,710.63
1563.1,753.937
1566.16,753.937
1569.21,753.937
1572.27,753.937
1575.32,710.63
1578.38,624.016
1581.43,537.402
1584.49,494.094
1587.54,450.787
1590.59,450.787
1593.65,450.787
1596.7,450.787
1599.76,494.094
1602.81,537.402
1605.87,537.402
1608.92,537.402
1611.98,494.094
1615.03,407.48
1618.09,234.252
1621.14,147.638
1624.2,104.331
1627.25,104.331
1630.31,104.331
1633.36,104.331
1636.41,61.0236
1639.47,104.331
1642.52,104.331
1645.58,104.331
1648.63,104.331
1651.69,104.331
1654.74,104.331
1657.8,104.331
1660.85,104.331
1663.91,104.331
1666.96,104.331
1670.02,104.331
1673.07,104.331
1676.13,104.331
1679.18,104.331
1682.23,104.331
1685.29,104.331
1688.34,104.331
1691.4,104.331
1694.45,147.638
1697.51,147.638
1700.56,147.638
1703.62,147.638
1706.67,190.945
1709.73,190.945
1712.78,147.638
1715.84,147.638
1718.89,147.638
1721.95,190.945
1725,190.945
1728.05,190.945
1731.11,190.945
1734.16,190.945
1737.22,190.945
1740.27,190.945
1743.33,190.945
1746.38,190.945
1749.44,190.945
1752.49,190.945
1755.55,147.638
1758.6,190.945
1761.66,190.945
1764.71,190.945
1767.77,234.252
1770.82,234.252
1773.87,277.559
1776.93,277.559
1779.98,277.559
1783.04,234.252
1786.09,190.945
1789.15,190.945
1792.2,147.638
1795.26,190.945
1798.31,190.945
1801.37,234.252
1804.42,234.252
1807.48,277.559
1810.53,364.173
1813.59,234.252
1816.64,234.252
1819.69,234.252
1822.75,234.252
1825.8,234.252
1828.86,234.252
1831.91,234.252
1834.97,234.252
1838.02,190.945
1841.08,190.945
1844.13,147.638
1847.19,147.638
1850.24,147.638
1853.3,147.638
1856.35,190.945
1859.41,190.945
1862.46,190.945
1865.51,190.945
1868.57,190.945
1871.62,234.252
1874.68,234.252
1877.73,234.252
1880.79,234.252
1883.84,190.945
1886.9,190.945
1889.95,190.945
1893.01,190.945
1896.06,190.945
1899.12,190.945
1902.17,190.945
1905.23,190.945
1908.28,190.945
1911.33,147.638
1914.39,147.638
1917.44,147.638
1920.5,147.638
1923.55,147.638
1926.61,147.638
1929.66,147.638
1932.72,147.638
1935.77,147.638
1938.83,147.638
1941.88,147.638
1944.94,147.638
1947.99,147.638
1951.05,147.638
1954.1,190.945
1957.15,190.945
1960.21,147.638
1963.26,147.638
1966.32,147.638
1969.37,147.638
1972.43,147.638
1975.48,147.638
1978.54,190.945
1981.59,190.945
1984.65,190.945
1987.7,190.945
1990.76,190.945
1993.81,190.945
1996.86,190.945
1999.92,190.945
2002.97,190.945
2006.03,147.638
2009.08,147.638
2012.14,104.331
2015.19,104.331
2018.25,104.331
2021.3,104.331
2024.36,104.331
2027.41,104.331
2030.47,104.331
2033.52,104.331
2036.58,104.331
2039.63,104.331
2042.68,104.331
2045.74,147.638
2048.79,190.945
2051.85,190.945
2054.9,190.945
2057.96,147.638
2061.01,147.638
2064.07,104.331
2067.12,104.331
2070.18,147.638
2073.23,147.638
2076.29,147.638
2079.34,147.638
2082.4,190.945
2085.45,190.945
2088.5,234.252
2091.56,234.252
2094.61,277.559
2097.67,277.559
2100.72,277.559
2103.78,234.252
2106.83,234.252
2109.89,190.945
2112.94,190.945
2116,190.945
2119.05,190.945
2122.11,190.945
2125.16,190.945
2128.22,190.945
2131.27,190.945
2134.32,147.638
2137.38,147.638
2140.43,104.331
2143.49,104.331
2146.54,104.331
2149.6,104.331
2152.65,104.331
2155.71,104.331
2158.76,104.331
2161.82,104.331
2164.87,104.331
2167.93,104.331
2170.98,104.331
2174.04,104.331
2177.09,104.331
2180.14,147.638
2183.2,147.638
2186.25,147.638
2189.31,147.638
2192.36,104.331
2195.42,104.331
2198.47,104.331
2201.53,104.331
2204.58,104.331
2207.64,104.331
2210.69,104.331
2213.75,104.331
2216.8,147.638
2219.86,147.638
2222.91,147.638
2225.96,190.945
2229.02,190.945
2232.07,190.945
2235.13,147.638
2238.18,104.331
2241.24,104.331
2244.29,104.331
2247.35,104.331
2250.4,104.331
2253.46,147.638
2256.51,147.638
2259.57,147.638
2262.62,147.638
2265.68,147.638
2268.73,104.331
2271.78,61.0236
2274.84,61.0236
2277.89,61.0236
2280.95,61.0236
2284,61.0236
2287.06,17.7165
