,GP550R
RamanShit,Intensity
258.828,61.0236
261.878,-25.5906
264.928,-25.5906
267.978,-25.5906
271.027,17.7165
274.077,17.7165
277.127,17.7165
280.177,61.0236
283.226,147.638
286.276,234.252
289.326,320.866
292.376,364.173
295.425,407.48
298.475,450.787
301.525,450.787
304.575,494.094
307.624,494.094
310.674,537.402
313.724,537.402
316.774,494.094
319.823,450.787
322.873,407.48
325.923,364.173
328.973,277.559
332.022,234.252
335.072,147.638
338.122,61.0236
341.172,61.0236
344.222,61.0236
347.271,61.0236
350.321,61.0236
353.371,61.0236
356.421,104.331
359.47,104.331
362.52,147.638
365.57,234.252
368.62,364.173
371.669,407.48
374.719,494.094
377.769,667.323
380.819,797.244
383.868,970.472
386.918,1187.01
389.968,1360.24
393.018,1533.46
396.067,1836.61
399.117,2183.07
402.167,2572.83
405.217,3005.91
408.266,3352.36
411.316,3698.82
414.366,4088.58
417.416,4348.43
420.465,4694.88
423.515,4608.27
426.565,4305.12
429.615,4088.58
432.665,3742.13
435.714,3352.36
438.764,2702.76
441.814,1923.23
444.864,1187.01
447.913,580.709
450.963,277.559
454.013,190.945
457.063,277.559
460.112,320.866
463.162,494.094
466.212,840.551
469.262,1187.01
472.311,1706.69
475.361,2486.22
478.411,3438.98
481.461,4305.12
484.51,4738.19
487.56,5561.02
490.61,5344.49
493.66,4045.28
496.709,3005.91
499.759,2269.69
502.809,1923.23
505.859,1836.61
508.909,1793.31
511.958,1750
515.008,1620.08
518.058,1490.16
521.108,1316.93
524.157,1100.39
527.207,840.551
530.257,624.016
533.307,407.48
536.356,320.866
539.406,277.559
542.456,234.252
545.506,190.945
548.555,190.945
551.605,190.945
554.655,190.945
557.705,147.638
560.754,104.331
563.804,104.331
566.854,104.331
569.904,61.0236
572.953,61.0236
576.003,61.0236
579.053,104.331
582.103,104.331
585.152,190.945
588.202,320.866
591.252,494.094
594.302,667.323
597.352,667.323
600.401,710.63
603.451,753.937
606.501,927.165
609.551,1360.24
612.6,2009.84
615.65,2962.6
618.7,4175.2
621.75,5561.02
624.799,6860.24
627.849,7899.61
630.899,8549.21
633.949,8982.28
636.998,9198.82
640.048,9328.74
643.098,9155.51
646.148,8938.98
649.197,8375.98
652.247,7596.46
655.297,6557.09
658.347,5344.49
661.396,4131.89
664.446,3179.13
667.496,2616.14
670.546,2312.99
673.596,2139.76
676.645,1966.54
679.695,1793.31
682.745,1750
685.795,1750
688.844,1750
691.894,1836.61
694.944,1879.92
697.994,1879.92
701.043,1836.61
704.093,1750
707.143,1533.46
710.193,1360.24
713.242,1316.93
716.292,1316.93
719.342,1360.24
722.392,1403.54
725.441,1446.85
728.491,1446.85
731.541,1446.85
734.591,1446.85
737.64,1360.24
740.69,1143.7
743.74,883.858
746.79,624.016
749.839,450.787
752.889,277.559
755.939,147.638
758.989,104.331
762.039,104.331
765.088,61.0236
768.138,61.0236
771.188,61.0236
774.238,61.0236
777.287,147.638
780.337,190.945
783.387,320.866
786.437,450.787
789.486,624.016
792.536,710.63
795.586,753.937
798.636,797.244
801.685,580.709
804.735,494.094
807.785,407.48
810.835,364.173
813.884,364.173
816.934,320.866
819.984,234.252
823.034,147.638
826.083,147.638
829.133,147.638
832.183,147.638
835.233,147.638
838.283,104.331
841.332,104.331
844.382,104.331
847.432,104.331
850.482,147.638
853.531,147.638
856.581,147.638
859.631,104.331
862.681,104.331
865.73,104.331
868.78,104.331
871.83,147.638
874.88,320.866
877.929,147.638
880.979,104.331
884.029,61.0236
887.079,61.0236
890.128,61.0236
893.178,61.0236
896.228,61.0236
899.278,61.0236
902.327,61.0236
905.377,104.331
908.427,104.331
911.477,104.331
914.526,104.331
917.576,104.331
920.626,104.331
923.676,104.331
926.726,104.331
929.775,61.0236
932.825,61.0236
935.875,104.331
938.925,104.331
941.974,61.0236
945.024,61.0236
948.074,61.0236
951.124,61.0236
954.173,104.331
957.223,104.331
960.273,104.331
963.323,104.331
966.372,104.331
969.422,104.331
972.472,104.331
975.522,61.0236
978.571,61.0236
981.621,61.0236
984.671,61.0236
987.721,61.0236
990.77,104.331
993.82,104.331
996.87,104.331
999.92,104.331
1002.97,147.638
1006.02,190.945
1009.07,234.252
1012.12,277.559
1015.17,320.866
1018.22,407.48
1021.27,450.787
1024.32,580.709
1027.37,710.63
1030.42,883.858
1033.47,1013.78
1036.52,1100.39
1039.57,1316.93
1042.62,1620.08
1045.67,1879.92
1048.72,2009.84
1051.77,2139.76
1054.82,2269.69
1057.87,2399.61
1060.91,2529.53
1063.96,2659.45
1067.01,2659.45
1070.06,2702.76
1073.11,2746.06
1076.16,2659.45
1079.21,2486.22
1082.26,2183.07
1085.31,1836.61
1088.36,1403.54
1091.41,1057.09
1094.46,840.551
1097.51,753.937
1100.56,710.63
1103.61,710.63
1106.66,710.63
1109.71,710.63
1112.76,753.937
1115.81,753.937
1118.86,753.937
1121.91,840.551
1124.96,883.858
1128.01,1013.78
1131.06,1100.39
1134.11,1143.7
1137.16,1187.01
1140.21,1230.31
1143.26,1273.62
1146.31,1316.93
1149.36,1360.24
1152.41,1403.54
1155.46,1446.85
1158.51,1490.16
1161.56,1620.08
1164.61,1793.31
1167.66,1879.92
1170.71,1879.92
1173.76,1836.61
1176.81,1706.69
1179.86,1446.85
1182.91,1187.01
1185.96,970.472
1189,840.551
1192.05,753.937
1195.1,667.323
1198.15,624.016
1201.2,580.709
1204.25,667.323
1207.3,797.244
1210.35,970.472
1213.4,1100.39
1216.45,1187.01
1219.5,1230.31
1222.55,1230.31
1225.6,1230.31
1228.65,1187.01
1231.7,1057.09
1234.75,883.858
1237.8,840.551
1240.85,753.937
1243.9,667.323
1246.95,580.709
1250,494.094
1253.05,450.787
1256.1,320.866
1259.15,277.559
1262.2,234.252
1265.25,190.945
1268.3,234.252
1271.35,277.559
1274.4,320.866
1277.45,407.48
1280.5,407.48
1283.55,450.787
1286.6,450.787
1289.65,407.48
1292.7,277.559
1295.75,147.638
1298.8,61.0236
1301.85,61.0236
1304.9,61.0236
1307.95,61.0236
1311,61.0236
1314.04,61.0236
1317.09,61.0236
1320.14,104.331
1323.19,104.331
1326.24,147.638
1329.29,234.252
1332.34,407.48
1335.39,580.709
1338.44,797.244
1341.49,927.165
1344.54,1057.09
1347.59,1057.09
1350.64,1057.09
1353.69,1013.78
1356.74,883.858
1359.79,797.244
1362.84,667.323
1365.89,580.709
1368.94,537.402
1371.99,450.787
1375.04,407.48
1378.09,364.173
1381.14,364.173
1384.19,364.173
1387.24,364.173
1390.29,364.173
1393.34,364.173
1396.39,450.787
1399.44,450.787
1402.49,494.094
1405.54,537.402
1408.59,580.709
1411.64,580.709
1414.69,580.709
1417.74,537.402
1420.79,450.787
1423.84,407.48
1426.89,407.48
1429.94,364.173
1432.99,364.173
1436.04,320.866
1439.09,277.559
1442.13,277.559
1445.18,277.559
1448.23,277.559
1451.28,277.559
1454.33,277.559
1457.38,277.559
1460.43,234.252
1463.48,234.252
1466.53,234.252
1469.58,190.945
1472.63,190.945
1475.68,234.252
1478.73,234.252
1481.78,277.559
1484.83,277.559
1487.88,277.559
1490.93,277.559
1493.98,277.559
1497.03,277.559
1500.08,234.252
1503.13,234.252
1506.18,277.559
1509.23,277.559
1512.28,277.559
1515.33,277.559
1518.38,234.252
1521.43,234.252
1524.48,190.945
1527.53,190.945
1530.58,147.638
1533.63,147.638
1536.68,147.638
1539.73,190.945
1542.78,190.945
1545.83,234.252
1548.88,234.252
1551.93,364.173
1554.98,450.787
1558.03,450.787
1561.08,450.787
1564.13,450.787
1567.17,450.787
1570.22,537.402
1573.27,450.787
1576.32,450.787
1579.37,450.787
1582.42,407.48
1585.47,364.173
1588.52,320.866
1591.57,320.866
1594.62,320.866
1597.67,320.866
1600.72,407.48
1603.77,537.402
1606.82,537.402
1609.87,624.016
1612.92,494.094
1615.97,407.48
1619.02,320.866
1622.07,277.559
1625.12,234.252
1628.17,190.945
1631.22,190.945
1634.27,190.945
1637.32,190.945
1640.37,147.638
1643.42,234.252
1646.47,234.252
1649.52,277.559
1652.57,277.559
1655.62,277.559
1658.67,320.866
1661.72,364.173
1664.77,407.48
1667.82,450.787
1670.87,537.402
1673.92,624.016
1676.97,624.016
1680.02,667.323
1683.07,667.323
1686.12,710.63
1689.17,710.63
1692.22,710.63
1695.26,710.63
1698.31,710.63
1701.36,710.63
1704.41,667.323
1707.46,667.323
1710.51,580.709
1713.56,537.402
1716.61,494.094
1719.66,494.094
1722.71,450.787
1725.76,450.787
1728.81,494.094
1731.86,580.709
1734.91,494.094
1737.96,450.787
1741.01,450.787
1744.06,407.48
1747.11,364.173
1750.16,364.173
1753.21,364.173
1756.26,364.173
1759.31,450.787
1762.36,450.787
1765.41,494.094
1768.46,494.094
1771.51,494.094
1774.56,494.094
1777.61,624.016
1780.66,1013.78
1783.71,494.094
1786.76,450.787
1789.81,364.173
1792.86,234.252
1795.91,190.945
1798.96,234.252
1802.01,277.559
1805.06,320.866
1808.11,494.094
1811.16,364.173
1814.21,277.559
1817.26,234.252
1820.3,234.252
1823.35,234.252
1826.4,234.252
1829.45,234.252
1832.5,234.252
1835.55,190.945
1838.6,190.945
1841.65,104.331
1844.7,190.945
1847.75,234.252
1850.8,277.559
1853.85,320.866
1856.9,320.866
1859.95,364.173
1863,407.48
1866.05,450.787
1869.1,537.402
1872.15,580.709
1875.2,624.016
1878.25,537.402
1881.3,537.402
1884.35,537.402
1887.4,537.402
1890.45,450.787
1893.5,537.402
1896.55,580.709
1899.6,624.016
1902.65,753.937
1905.7,624.016
1908.75,624.016
1911.8,580.709
1914.85,580.709
1917.9,494.094
1920.95,494.094
1924,494.094
1927.05,580.709
1930.1,580.709
1933.15,624.016
1936.2,624.016
1939.25,667.323
1942.3,710.63
1945.35,710.63
1948.39,710.63
1951.44,710.63
1954.49,710.63
1957.54,710.63
1960.59,667.323
1963.64,580.709
1966.69,537.402
1969.74,494.094
1972.79,407.48
1975.84,494.094
1978.89,450.787
1981.94,450.787
1984.99,450.787
1988.04,450.787
1991.09,450.787
1994.14,450.787
1997.19,407.48
2000.24,364.173
2003.29,320.866
2006.34,320.866
2009.39,277.559
2012.44,277.559
2015.49,277.559
2018.54,277.559
2021.59,234.252
2024.64,190.945
2027.69,147.638
2030.74,147.638
2033.79,147.638
2036.84,147.638
2039.89,104.331
2042.94,190.945
2045.99,234.252
2049.04,234.252
2052.09,234.252
2055.14,234.252
2058.19,190.945
2061.24,147.638
2064.29,104.331
2067.34,104.331
2070.39,104.331
2073.43,104.331
2076.48,104.331
2079.53,104.331
2082.58,147.638
2085.63,147.638
2088.68,234.252
2091.73,277.559
2094.78,277.559
2097.83,277.559
2100.88,234.252
2103.93,234.252
2106.98,234.252
2110.03,190.945
2113.08,190.945
2116.13,190.945
2119.18,190.945
2122.23,190.945
2125.28,190.945
2128.33,190.945
2131.38,190.945
2134.43,190.945
2137.48,147.638
2140.53,147.638
2143.58,147.638
2146.63,104.331
2149.68,147.638
2152.73,147.638
2155.78,147.638
2158.83,147.638
2161.88,147.638
2164.93,147.638
2167.98,147.638
2171.03,147.638
2174.08,190.945
2177.13,190.945
2180.18,190.945
2183.23,190.945
2186.28,190.945
2189.33,190.945
2192.38,234.252
2195.43,147.638
2198.48,147.638
2201.52,147.638
2204.57,450.787
2207.62,537.402
2210.67,234.252
2213.72,234.252
2216.77,277.559
2219.82,320.866
2222.87,364.173
2225.92,494.094
2228.97,364.173
2232.02,364.173
2235.07,277.559
2238.12,147.638
2241.17,147.638
2244.22,147.638
2247.27,190.945
2250.32,234.252
2253.37,277.559
2256.42,234.252
2259.47,234.252
2262.52,234.252
2265.57,234.252
2268.62,190.945
2271.67,147.638
2274.72,147.638
2277.77,147.638
2280.82,147.638
2283.87,234.252
2286.92,17.7165
2289.97,-112.205
