,GP550R
RamanShit,Intensity
252.729,21666.7
255.778,35196.1
258.828,35196.1
261.878,5000
264.928,6176.47
267.978,4019.61
271.027,3823.53
274.077,2647.06
277.127,882.353
280.177,98.0392
283.226,98.0392
286.276,98.0392
289.326,98.0392
292.376,98.0392
295.425,98.0392
298.475,98.0392
301.525,98.0392
304.575,98.0392
307.624,98.0392
310.674,98.0392
313.724,98.0392
316.774,98.0392
319.823,98.0392
322.873,98.0392
325.923,98.0392
328.973,98.0392
332.022,294.118
335.072,490.196
338.122,882.353
341.172,2450.98
344.222,4607.84
347.271,5784.31
350.321,6568.63
353.371,7352.94
356.421,7549.02
359.47,9117.65
362.52,12451
365.57,14215.7
368.62,20490.2
371.669,21470.6
374.719,14019.6
377.769,10686.3
380.819,6568.63
383.868,5392.16
386.918,4803.92
389.968,5196.08
393.018,7156.86
396.067,7352.94
399.117,4607.84
402.167,3235.29
405.217,1470.59
408.266,882.353
411.316,490.196
414.366,294.118
417.416,294.118
420.465,98.0392
423.515,98.0392
426.565,98.0392
429.615,98.0392
432.665,98.0392
435.714,98.0392
438.764,98.0392
441.814,98.0392
444.864,98.0392
447.913,98.0392
450.963,294.118
454.013,490.196
457.063,882.353
460.112,1470.59
463.162,1862.75
466.212,1862.75
469.262,1862.75
472.311,1862.75
475.361,1862.75
478.411,1666.67
481.461,1470.59
484.51,1274.51
487.56,1078.43
490.61,1078.43
493.66,1078.43
496.709,1470.59
499.759,1666.67
502.809,1666.67
505.859,1666.67
508.909,1470.59
511.958,1274.51
515.008,1274.51
518.058,1470.59
521.108,1862.75
524.157,3235.29
527.207,5980.39
530.257,8333.33
533.307,13823.5
536.356,14607.8
539.406,8725.49
542.456,6764.71
545.506,3627.45
548.555,2058.82
551.605,1274.51
554.655,1078.43
557.705,1078.43
560.754,1274.51
563.804,2058.82
566.854,5196.08
569.904,12451
572.953,34411.8
576.003,35784.3
579.053,16960.8
582.103,11666.7
585.152,4019.61
588.202,1666.67
591.252,882.353
594.302,686.275
597.352,490.196
600.401,294.118
603.451,294.118
606.501,98.0392
609.551,98.0392
612.6,98.0392
615.65,98.0392
618.7,98.0392
621.75,98.0392
624.799,98.0392
627.849,98.0392
630.899,98.0392
633.949,98.0392
636.998,98.0392
640.048,98.0392
643.098,98.0392
646.148,98.0392
649.197,98.0392
652.247,98.0392
655.297,98.0392
658.347,98.0392
661.396,98.0392
664.446,98.0392
667.496,98.0392
670.546,98.0392
673.596,98.0392
676.645,98.0392
679.695,98.0392
682.745,98.0392
685.795,98.0392
688.844,98.0392
691.894,98.0392
694.944,98.0392
697.994,98.0392
701.043,98.0392
704.093,98.0392
707.143,98.0392
710.193,98.0392
713.242,98.0392
716.292,98.0392
719.342,98.0392
722.392,98.0392
725.441,98.0392
728.491,294.118
731.541,294.118
734.591,294.118
737.64,294.118
740.69,490.196
743.74,490.196
746.79,490.196
749.839,490.196
752.889,490.196
755.939,294.118
758.989,294.118
762.039,294.118
765.088,294.118
768.138,294.118
771.188,294.118
774.238,294.118
777.287,98.0392
780.337,98.0392
783.387,98.0392
786.437,98.0392
789.486,98.0392
792.536,98.0392
795.586,98.0392
798.636,98.0392
801.685,98.0392
804.735,98.0392
807.785,98.0392
810.835,98.0392
813.884,98.0392
816.934,98.0392
819.984,98.0392
823.034,98.0392
826.083,98.0392
829.133,98.0392
832.183,98.0392
835.233,98.0392
838.283,98.0392
841.332,98.0392
844.382,98.0392
847.432,98.0392
850.482,98.0392
853.531,98.0392
856.581,98.0392
859.631,98.0392
862.681,98.0392
865.73,98.0392
868.78,98.0392
871.83,98.0392
874.88,98.0392
877.929,98.0392
880.979,98.0392
884.029,98.0392
887.079,294.118
890.128,294.118
893.178,490.196
896.228,686.275
899.278,1078.43
902.327,1274.51
905.377,2058.82
908.427,3235.29
911.477,4607.84
914.526,5784.31
917.576,6568.63
920.626,7941.18
923.676,11078.4
926.726,15784.3
929.775,21470.6
932.825,24803.9
935.875,30294.1
938.925,24803.9
941.974,23235.3
945.024,19902
948.074,17941.2
951.124,16176.5
954.173,11666.7
957.223,6960.78
960.273,4019.61
963.323,2450.98
966.372,1666.67
969.422,1274.51
972.472,882.353
975.522,490.196
978.571,294.118
981.621,294.118
984.671,98.0392
987.721,98.0392
990.77,98.0392
993.82,98.0392
996.87,98.0392
999.92,98.0392
1002.97,98.0392
1006.02,98.0392
1009.07,98.0392
1012.12,294.118
1015.17,294.118
1018.22,490.196
1021.27,490.196
1024.32,490.196
1027.37,294.118
1030.42,294.118
1033.47,294.118
1036.52,98.0392
1039.57,98.0392
1042.62,98.0392
1045.67,98.0392
1048.72,98.0392
1051.77,294.118
1054.82,294.118
1057.87,490.196
1060.91,490.196
1063.96,490.196
1067.01,294.118
1070.06,294.118
1073.11,98.0392
1076.16,98.0392
1079.21,98.0392
1082.26,98.0392
1085.31,98.0392
1088.36,294.118
1091.41,490.196
1094.46,490.196
1097.51,686.275
1100.56,686.275
1103.61,686.275
1106.66,490.196
1109.71,490.196
1112.76,294.118
1115.81,294.118
1118.86,294.118
1121.91,98.0392
1124.96,98.0392
1128.01,98.0392
1131.06,294.118
1134.11,294.118
1137.16,490.196
1140.21,686.275
1143.26,686.275
1146.31,882.353
1149.36,882.353
1152.41,882.353
1155.46,1078.43
1158.51,1078.43
1161.56,1274.51
1164.61,1274.51
1167.66,1470.59
1170.71,1470.59
1173.76,1470.59
1176.81,1274.51
1179.86,1078.43
1182.91,882.353
1185.96,686.275
1189,294.118
1192.05,294.118
1195.1,294.118
1198.15,98.0392
1201.2,98.0392
1204.25,98.0392
1207.3,98.0392
1210.35,294.118
1213.4,490.196
1216.45,490.196
1219.5,686.275
1222.55,686.275
1225.6,686.275
1228.65,686.275
1231.7,686.275
1234.75,686.275
1237.8,490.196
1240.85,490.196
1243.9,294.118
1246.95,294.118
1250,294.118
1253.05,294.118
1256.1,294.118
1259.15,98.0392
1262.2,98.0392
1265.25,98.0392
1268.3,294.118
1271.35,294.118
1274.4,294.118
1277.45,490.196
1280.5,490.196
1283.55,686.275
1286.6,686.275
1289.65,490.196
1292.7,490.196
1295.75,490.196
1298.8,294.118
1301.85,294.118
1304.9,294.118
1307.95,294.118
1311,294.118
1314.04,294.118
1317.09,294.118
1320.14,294.118
1323.19,294.118
1326.24,294.118
1329.29,490.196
1332.34,686.275
1335.39,882.353
1338.44,1078.43
1341.49,1274.51
1344.54,1274.51
1347.59,1470.59
1350.64,1470.59
1353.69,1274.51
1356.74,1274.51
1359.79,1078.43
1362.84,882.353
1365.89,686.275
1368.94,686.275
1371.99,490.196
1375.04,490.196
1378.09,294.118
1381.14,294.118
1384.19,294.118
1387.24,294.118
1390.29,294.118
1393.34,294.118
1396.39,294.118
1399.44,294.118
1402.49,294.118
1405.54,490.196
1408.59,490.196
1411.64,490.196
1414.69,490.196
1417.74,490.196
1420.79,490.196
1423.84,294.118
1426.89,294.118
1429.94,98.0392
1432.99,98.0392
1436.04,98.0392
1439.09,98.0392
1442.13,98.0392
1445.18,98.0392
1448.23,98.0392
1451.28,98.0392
1454.33,98.0392
1457.38,98.0392
1460.43,98.0392
1463.48,98.0392
1466.53,98.0392
1469.58,98.0392
1472.63,98.0392
1475.68,98.0392
1478.73,294.118
1481.78,294.118
1484.83,294.118
1487.88,294.118
1490.93,294.118
1493.98,294.118
1497.03,294.118
1500.08,294.118
1503.13,294.118
1506.18,294.118
1509.23,294.118
1512.28,294.118
1515.33,294.118
1518.38,294.118
1521.43,294.118
1524.48,294.118
1527.53,294.118
1530.58,294.118
1533.63,294.118
1536.68,294.118
1539.73,294.118
1542.78,294.118
1545.83,294.118
1548.88,294.118
1551.93,294.118
1554.98,490.196
1558.03,490.196
1561.08,490.196
1564.13,490.196
1567.17,686.275
1570.22,686.275
1573.27,686.275
1576.32,686.275
1579.37,686.275
1582.42,686.275
1585.47,686.275
1588.52,686.275
1591.57,686.275
1594.62,686.275
1597.67,686.275
1600.72,686.275
1603.77,686.275
1606.82,686.275
1609.87,686.275
1612.92,686.275
1615.97,686.275
1619.02,686.275
1622.07,490.196
1625.12,294.118
1628.17,294.118
1631.22,294.118
1634.27,294.118
1637.32,98.0392
1640.37,98.0392
1643.42,98.0392
1646.47,98.0392
1649.52,98.0392
1652.57,98.0392
1655.62,98.0392
1658.67,98.0392
1661.72,98.0392
1664.77,98.0392
1667.82,98.0392
1670.87,98.0392
1673.92,294.118
1676.97,294.118
1680.02,294.118
1683.07,294.118
1686.12,294.118
1689.17,294.118
1692.22,294.118
1695.26,294.118
1698.31,294.118
1701.36,294.118
1704.41,294.118
1707.46,294.118
1710.51,294.118
1713.56,294.118
1716.61,294.118
1719.66,98.0392
1722.71,98.0392
1725.76,98.0392
1728.81,98.0392
1731.86,98.0392
1734.91,294.118
1737.96,98.0392
1741.01,98.0392
1744.06,98.0392
1747.11,98.0392
1750.16,98.0392
1753.21,98.0392
1756.26,98.0392
1759.31,98.0392
1762.36,98.0392
1765.41,294.118
1768.46,294.118
1771.51,294.118
1774.56,294.118
1777.61,294.118
1780.66,294.118
1783.71,294.118
1786.76,294.118
1789.81,294.118
1792.86,294.118
1795.91,294.118
1798.96,294.118
1802.01,294.118
1805.06,294.118
1808.11,294.118
1811.16,294.118
1814.21,294.118
1817.26,294.118
1820.3,294.118
1823.35,294.118
1826.4,294.118
1829.45,294.118
1832.5,294.118
1835.55,294.118
1838.6,294.118
1841.65,294.118
1844.7,294.118
1847.75,294.118
1850.8,294.118
1853.85,294.118
1856.9,294.118
1859.95,294.118
1863,294.118
1866.05,294.118
1869.1,294.118
1872.15,294.118
1875.2,294.118
1878.25,294.118
1881.3,294.118
1884.35,294.118
1887.4,294.118
1890.45,294.118
1893.5,294.118
1896.55,98.0392
1899.6,98.0392
1902.65,98.0392
1905.7,98.0392
1908.75,98.0392
1911.8,98.0392
1914.85,98.0392
1917.9,294.118
1920.95,294.118
1924,294.118
1927.05,294.118
1930.1,294.118
1933.15,294.118
1936.2,294.118
1939.25,294.118
1942.3,294.118
1945.35,294.118
1948.39,294.118
1951.44,294.118
1954.49,294.118
1957.54,294.118
1960.59,294.118
1963.64,294.118
1966.69,294.118
1969.74,294.118
1972.79,294.118
1975.84,294.118
1978.89,294.118
1981.94,294.118
1984.99,98.0392
1988.04,98.0392
1991.09,98.0392
1994.14,98.0392
1997.19,98.0392
2000.24,98.0392
2003.29,98.0392
2006.34,98.0392
2009.39,98.0392
2012.44,98.0392
2015.49,98.0392
2018.54,98.0392
2021.59,98.0392
2024.64,98.0392
2027.69,98.0392
2030.74,98.0392
2033.79,98.0392
2036.84,98.0392
2039.89,294.118
2042.94,294.118
2045.99,294.118
2049.04,294.118
2052.09,294.118
2055.14,294.118
2058.19,294.118
2061.24,294.118
2064.29,294.118
2067.34,294.118
2070.39,98.0392
2073.43,98.0392
2076.48,98.0392
2079.53,98.0392
2082.58,98.0392
2085.63,98.0392
2088.68,98.0392
2091.73,294.118
2094.78,294.118
2097.83,294.118
2100.88,294.118
2103.93,98.0392
2106.98,98.0392
2110.03,98.0392
2113.08,98.0392
2116.13,98.0392
2119.18,294.118
2122.23,294.118
2125.28,294.118
2128.33,294.118
2131.38,294.118
2134.43,294.118
2137.48,294.118
2140.53,294.118
2143.58,294.118
2146.63,294.118
2149.68,294.118
2152.73,294.118
2155.78,294.118
2158.83,294.118
2161.88,98.0392
2164.93,98.0392
2167.98,98.0392
2171.03,98.0392
2174.08,98.0392
2177.13,98.0392
2180.18,98.0392
2183.23,98.0392
2186.28,98.0392
2189.33,98.0392
2192.38,98.0392
2195.43,294.118
2198.48,294.118
2201.52,294.118
2204.57,294.118
2207.62,294.118
2210.67,294.118
2213.72,294.118
2216.77,294.118
2219.82,294.118
2222.87,294.118
2225.92,294.118
2228.97,294.118
2232.02,294.118
2235.07,294.118
2238.12,294.118
2241.17,294.118
2244.22,294.118
2247.27,294.118
2250.32,294.118
2253.37,294.118
2256.42,294.118
2259.47,294.118
2262.52,98.0392
2265.57,98.0392
2268.62,98.0392
2271.67,98.0392
2274.72,98.0392
2277.77,294.118
2280.82,294.118
2283.87,294.118
2286.92,294.118
2289.97,294.118
2293.02,-9901.96
2296.07,-9901.96
