,GP550R
RamanShit,Intensity
249.435,27294.1
252.5,45176.5
255.565,45176.5
258.629,10117.6
261.694,9411.76
264.758,8470.59
267.823,6588.24
270.887,3294.12
273.952,1176.47
277.016,235.294
280.081,0
283.145,0
286.21,0
289.274,0
292.339,0
295.403,0
298.468,0
301.532,235.294
304.597,235.294
307.661,235.294
310.726,235.294
313.79,235.294
316.855,235.294
319.919,235.294
322.984,235.294
326.048,235.294
329.113,470.588
332.177,705.882
335.242,1411.76
338.306,3529.41
341.371,6352.94
344.435,7764.71
347.5,8941.18
350.565,10117.6
353.629,10588.2
356.694,12470.6
359.758,14823.5
362.823,15529.4
365.887,16470.6
368.952,15294.1
372.016,13176.5
375.081,8705.88
378.145,5647.06
381.21,4705.88
384.274,4235.29
387.339,4470.59
390.403,4941.18
393.468,4000
396.532,3764.71
399.597,2588.24
402.661,1176.47
405.726,705.882
408.79,470.588
411.855,235.294
414.919,235.294
417.984,235.294
421.048,235.294
424.113,235.294
427.177,235.294
430.242,235.294
433.306,235.294
436.371,235.294
439.435,235.294
442.5,235.294
445.565,235.294
448.629,470.588
451.694,705.882
454.758,1411.76
457.823,2117.65
460.887,2588.24
463.952,2117.65
467.016,1882.35
470.081,1647.06
473.145,1411.76
476.21,1176.47
479.274,705.882
482.339,470.588
485.403,470.588
488.468,470.588
491.532,470.588
494.597,941.176
497.661,1176.47
500.726,1176.47
503.79,1411.76
506.855,1411.76
509.919,1411.76
512.984,1411.76
516.048,1882.35
519.113,2588.24
522.177,4705.88
525.242,8235.29
528.306,10588.2
531.371,14117.6
534.435,10588.2
537.5,10352.9
540.565,8000
543.629,4470.59
546.694,2588.24
549.758,1882.35
552.823,1647.06
555.887,1882.35
558.952,2117.65
562.016,3058.82
565.081,7294.12
568.145,16470.6
571.21,44235.3
574.274,47058.8
577.339,22117.6
580.403,15294.1
583.468,5647.06
586.532,2117.65
589.597,941.176
592.661,470.588
595.726,470.588
598.79,235.294
601.855,235.294
604.919,235.294
607.984,235.294
611.048,235.294
614.113,235.294
617.177,235.294
620.242,235.294
623.306,235.294
626.371,235.294
629.435,235.294
632.5,235.294
635.565,235.294
638.629,235.294
641.694,235.294
644.758,235.294
647.823,235.294
650.887,235.294
653.952,235.294
657.016,235.294
660.081,235.294
663.145,235.294
666.21,235.294
669.274,235.294
672.339,235.294
675.403,235.294
678.468,235.294
681.532,235.294
684.597,235.294
687.661,235.294
690.726,235.294
693.79,235.294
696.855,235.294
699.919,235.294
702.984,235.294
706.048,235.294
709.113,235.294
712.177,235.294
715.242,235.294
718.306,235.294
721.371,235.294
724.435,235.294
727.5,235.294
730.565,235.294
733.629,235.294
736.694,235.294
739.758,235.294
742.823,470.588
745.887,470.588
748.952,470.588
752.016,235.294
755.081,235.294
758.145,235.294
761.21,235.294
764.274,235.294
767.339,235.294
770.403,235.294
773.468,235.294
776.532,235.294
779.597,235.294
782.661,235.294
785.726,235.294
788.79,235.294
791.855,235.294
794.919,235.294
797.984,235.294
801.048,235.294
804.113,235.294
807.177,235.294
810.242,235.294
813.306,235.294
816.371,235.294
819.435,235.294
822.5,235.294
825.565,235.294
828.629,235.294
831.694,235.294
834.758,235.294
837.823,235.294
840.887,235.294
843.952,235.294
847.016,235.294
850.081,235.294
853.145,235.294
856.21,235.294
859.274,235.294
862.339,235.294
865.403,235.294
868.468,235.294
871.532,235.294
874.597,235.294
877.661,235.294
880.726,235.294
883.79,235.294
886.855,235.294
889.919,470.588
892.984,470.588
896.048,705.882
899.113,941.176
902.177,1411.76
905.242,1882.35
908.306,2823.53
911.371,4000
914.435,5176.47
917.5,6588.24
920.565,8705.88
923.629,12470.6
926.694,16470.6
929.758,20470.6
932.823,22117.6
935.887,24941.2
938.952,21882.4
942.016,19058.8
945.081,15058.8
948.145,13882.4
951.21,11529.4
954.274,8000
957.339,4941.18
960.403,3058.82
963.468,1882.35
966.532,1411.76
969.597,1176.47
972.661,705.882
975.726,470.588
978.79,235.294
981.855,235.294
984.919,235.294
987.984,235.294
991.048,235.294
994.113,235.294
997.177,235.294
1000.24,235.294
1003.31,235.294
1006.37,235.294
1009.44,470.588
1012.5,470.588
1015.56,470.588
1018.63,705.882
1021.69,705.882
1024.76,705.882
1027.82,470.588
1030.89,470.588
1033.95,470.588
1037.02,235.294
1040.08,235.294
1043.15,235.294
1046.21,470.588
1049.27,470.588
1052.34,705.882
1055.4,705.882
1058.47,705.882
1061.53,705.882
1064.6,705.882
1067.66,705.882
1070.73,470.588
1073.79,470.588
1076.85,470.588
1079.92,470.588
1082.98,705.882
1086.05,941.176
1089.11,941.176
1092.18,1176.47
1095.24,1176.47
1098.31,1176.47
1101.37,941.176
1104.44,941.176
1107.5,705.882
1110.56,705.882
1113.63,470.588
1116.69,470.588
1119.76,470.588
1122.82,470.588
1125.89,470.588
1128.95,470.588
1132.02,235.294
1135.08,235.294
1138.15,235.294
1141.21,235.294
1144.27,235.294
1147.34,235.294
1150.4,235.294
1153.47,235.294
1156.53,235.294
1159.6,235.294
1162.66,235.294
1165.73,235.294
1168.79,235.294
1171.85,235.294
1174.92,235.294
1177.98,235.294
1181.05,235.294
1184.11,235.294
1187.18,470.588
1190.24,470.588
1193.31,235.294
1196.37,235.294
1199.44,235.294
1202.5,235.294
1205.56,470.588
1208.63,470.588
1211.69,470.588
1214.76,470.588
1217.82,470.588
1220.89,470.588
1223.95,470.588
1227.02,470.588
1230.08,470.588
1233.15,235.294
1236.21,235.294
1239.27,235.294
1242.34,235.294
1245.4,235.294
1248.47,235.294
1251.53,235.294
1254.6,235.294
1257.66,235.294
1260.73,235.294
1263.79,235.294
1266.85,235.294
1269.92,235.294
1272.98,235.294
1276.05,235.294
1279.11,235.294
1282.18,235.294
1285.24,235.294
1288.31,235.294
1291.37,235.294
1294.44,235.294
1297.5,235.294
1300.56,235.294
1303.63,235.294
1306.69,235.294
1309.76,235.294
1312.82,235.294
1315.89,235.294
1318.95,235.294
1322.02,235.294
1325.08,235.294
1328.15,235.294
1331.21,235.294
1334.27,235.294
1337.34,235.294
1340.4,235.294
1343.47,235.294
1346.53,235.294
1349.6,235.294
1352.66,235.294
1355.73,235.294
1358.79,235.294
1361.85,235.294
1364.92,235.294
1367.98,235.294
1371.05,235.294
1374.11,235.294
1377.18,235.294
1380.24,235.294
1383.31,235.294
1386.37,235.294
1389.44,235.294
1392.5,235.294
1395.56,235.294
1398.63,235.294
1401.69,235.294
1404.76,235.294
1407.82,235.294
1410.89,235.294
1413.95,235.294
1417.02,235.294
1420.08,235.294
1423.15,235.294
1426.21,235.294
1429.27,235.294
1432.34,235.294
1435.4,235.294
1438.47,235.294
1441.53,235.294
1444.6,235.294
1447.66,235.294
1450.73,235.294
1453.79,235.294
1456.85,235.294
1459.92,235.294
1462.98,235.294
1466.05,235.294
1469.11,235.294
1472.18,235.294
1475.24,235.294
1478.31,235.294
1481.37,235.294
1484.44,235.294
1487.5,235.294
1490.56,235.294
1493.63,235.294
1496.69,235.294
1499.76,235.294
1502.82,235.294
1505.89,235.294
1508.95,235.294
1512.02,235.294
1515.08,235.294
1518.15,235.294
1521.21,235.294
1524.27,235.294
1527.34,235.294
1530.4,235.294
1533.47,235.294
1536.53,235.294
1539.6,470.588
1542.66,470.588
1545.73,470.588
1548.79,470.588
1551.85,470.588
1554.92,470.588
1557.98,470.588
1561.05,470.588
1564.11,470.588
1567.18,235.294
1570.24,235.294
1573.31,235.294
1576.37,235.294
1579.44,235.294
1582.5,235.294
1585.56,235.294
1588.63,235.294
1591.69,235.294
1594.76,235.294
1597.82,235.294
1600.89,235.294
1603.95,235.294
1607.02,470.588
1610.08,470.588
1613.15,470.588
1616.21,235.294
1619.27,235.294
1622.34,235.294
1625.4,235.294
1628.47,235.294
1631.53,470.588
1634.6,235.294
1637.66,235.294
1640.73,235.294
1643.79,235.294
1646.85,235.294
1649.92,235.294
1652.98,235.294
1656.05,235.294
1659.11,235.294
1662.18,235.294
1665.24,235.294
1668.31,470.588
1671.37,470.588
1674.44,470.588
1677.5,470.588
1680.56,470.588
1683.63,470.588
1686.69,470.588
1689.76,470.588
1692.82,470.588
1695.89,470.588
1698.95,470.588
1702.02,470.588
1705.08,470.588
1708.15,470.588
1711.21,470.588
1714.27,470.588
1717.34,235.294
1720.4,235.294
1723.47,235.294
1726.53,235.294
1729.6,235.294
1732.66,235.294
1735.73,235.294
1738.79,235.294
1741.85,235.294
1744.92,235.294
1747.98,235.294
1751.05,235.294
1754.11,235.294
1757.18,235.294
1760.24,235.294
1763.31,235.294
1766.37,235.294
1769.44,235.294
1772.5,470.588
1775.56,470.588
1778.63,470.588
1781.69,470.588
1784.76,470.588
1787.82,470.588
1790.89,235.294
1793.95,235.294
1797.02,235.294
1800.08,235.294
1803.15,235.294
1806.21,470.588
1809.27,470.588
1812.34,470.588
1815.4,470.588
1818.47,470.588
1821.53,235.294
1824.6,235.294
1827.66,235.294
1830.73,235.294
1833.79,235.294
1836.85,470.588
1839.92,470.588
1842.98,235.294
1846.05,235.294
1849.11,235.294
1852.18,235.294
1855.24,235.294
1858.31,235.294
1861.37,470.588
1864.44,470.588
1867.5,470.588
1870.56,470.588
1873.63,470.588
1876.69,470.588
1879.76,470.588
1882.82,470.588
1885.89,470.588
1888.95,470.588
1892.02,470.588
1895.08,470.588
1898.15,470.588
1901.21,470.588
1904.27,470.588
1907.34,470.588
1910.4,470.588
1913.47,470.588
1916.53,470.588
1919.6,470.588
1922.66,470.588
1925.73,470.588
1928.79,470.588
1931.85,470.588
1934.92,470.588
1937.98,470.588
1941.05,470.588
1944.11,470.588
1947.18,470.588
1950.24,470.588
1953.31,705.882
1956.37,705.882
1959.44,705.882
1962.5,705.882
1965.56,705.882
1968.63,705.882
1971.69,470.588
1974.76,470.588
1977.82,470.588
1980.89,470.588
1983.95,470.588
1987.02,470.588
1990.08,470.588
1993.15,470.588
1996.21,470.588
1999.27,470.588
2002.34,470.588
2005.4,470.588
2008.47,470.588
2011.53,235.294
2014.6,235.294
2017.66,235.294
2020.73,235.294
2023.79,235.294
2026.85,235.294
2029.92,235.294
2032.98,235.294
2036.05,235.294
2039.11,235.294
2042.18,235.294
2045.24,235.294
2048.31,235.294
2051.37,470.588
2054.44,470.588
2057.5,470.588
2060.56,470.588
2063.63,470.588
2066.69,470.588
2069.76,235.294
2072.82,235.294
2075.89,235.294
2078.95,235.294
2082.02,235.294
2085.08,235.294
2088.15,235.294
2091.21,470.588
2094.27,470.588
2097.34,705.882
2100.4,705.882
2103.47,941.176
2106.53,705.882
2109.6,705.882
2112.66,705.882
2115.73,705.882
2118.79,705.882
2121.85,705.882
2124.92,705.882
2127.98,705.882
2131.05,705.882
2134.11,705.882
2137.18,705.882
2140.24,705.882
2143.31,470.588
2146.37,470.588
2149.44,470.588
2152.5,470.588
2155.56,470.588
2158.63,470.588
2161.69,470.588
2164.76,470.588
2167.82,470.588
2170.89,470.588
2173.95,470.588
2177.02,470.588
2180.08,470.588
2183.15,470.588
2186.21,470.588
2189.27,470.588
2192.34,470.588
2195.4,470.588
2198.47,470.588
2201.53,470.588
2204.6,470.588
2207.66,470.588
2210.73,470.588
2213.79,470.588
2216.85,470.588
2219.92,470.588
2222.98,470.588
2226.05,470.588
2229.11,470.588
2232.18,705.882
2235.24,705.882
2238.31,470.588
2241.37,470.588
2244.44,235.294
2247.5,235.294
2250.56,235.294
2253.63,235.294
2256.69,235.294
2259.76,470.588
2262.82,470.588
2265.89,470.588
2268.95,470.588
2272.02,470.588
2275.08,470.588
2278.15,470.588
2281.21,470.588
2284.27,470.588
2287.34,470.588
2290.4,235.294
2293.47,-9882.35
2296.53,-9882.35
2299.6,-9882.35
