,GP550R
RamanShit,Intensity
259.375,689.655
261.458,689.655
263.542,689.655
265.625,689.655
267.708,689.655
269.792,564.263
271.875,564.263
273.958,564.263
276.042,564.263
278.125,564.263
280.208,564.263
282.292,564.263
284.375,564.263
286.458,564.263
288.542,564.263
290.625,564.263
292.708,564.263
294.792,564.263
296.875,564.263
298.958,564.263
301.042,564.263
303.125,564.263
305.208,564.263
307.292,564.263
309.375,564.263
311.458,689.655
313.542,689.655
315.625,689.655
317.708,689.655
319.792,689.655
321.875,564.263
323.958,564.263
326.042,564.263
328.125,564.263
330.208,564.263
332.292,564.263
334.375,564.263
336.458,564.263
338.542,564.263
340.625,689.655
342.708,815.047
344.792,1065.83
346.875,1065.83
348.958,1191.22
351.042,1191.22
353.125,1191.22
355.208,1191.22
357.292,1065.83
359.375,1065.83
361.458,1065.83
363.542,1065.83
365.625,940.439
367.708,689.655
369.792,689.655
371.875,689.655
373.958,689.655
376.042,689.655
378.125,689.655
380.208,689.655
382.292,689.655
384.375,689.655
386.458,815.047
388.542,1065.83
390.625,1065.83
392.708,1065.83
394.792,1065.83
396.875,940.439
398.958,689.655
401.042,564.263
403.125,564.263
405.208,564.263
407.292,564.263
409.375,564.263
411.458,564.263
413.542,564.263
415.625,564.263
417.708,564.263
419.792,564.263
421.875,564.263
423.958,689.655
426.042,689.655
428.125,689.655
430.208,689.655
432.292,940.439
434.375,1442.01
436.458,1692.79
438.542,2194.36
440.625,2946.71
442.708,4451.41
444.792,6332.29
446.875,7335.42
448.958,9592.48
451.042,14106.6
453.125,20877.7
455.208,25517.2
457.292,33918.5
459.375,32288.4
461.458,25642.6
463.542,23887.1
465.625,17742.9
467.708,11473.4
469.792,9467.08
471.875,7962.38
473.958,5705.33
476.042,4576.8
478.125,4200.63
480.208,4075.24
482.292,4200.63
484.375,4326.02
486.458,4952.98
488.542,6332.29
490.625,8840.13
492.708,10846.4
494.792,10971.8
496.875,12100.3
498.958,14357.4
501.042,10846.4
503.125,8589.34
505.208,6457.68
507.292,5454.55
509.375,3824.45
511.458,2570.53
513.542,2068.97
515.625,1692.79
517.708,1442.01
519.792,1191.22
521.875,1065.83
523.958,815.047
526.042,689.655
528.125,689.655
530.208,689.655
532.292,689.655
534.375,689.655
536.458,564.263
538.542,564.263
540.625,564.263
542.708,564.263
544.792,564.263
546.875,564.263
548.958,564.263
551.042,564.263
553.125,564.263
555.208,564.263
557.292,564.263
559.375,564.263
561.458,564.263
563.542,564.263
565.625,564.263
567.708,564.263
569.792,564.263
571.875,564.263
573.958,564.263
576.042,564.263
578.125,564.263
580.208,564.263
582.292,564.263
584.375,564.263
586.458,564.263
588.542,564.263
590.625,564.263
592.708,564.263
594.792,564.263
596.875,564.263
598.958,564.263
601.042,564.263
603.125,564.263
605.208,564.263
607.292,564.263
609.375,564.263
611.458,564.263
613.542,564.263
615.625,564.263
617.708,564.263
619.792,564.263
621.875,564.263
623.958,564.263
626.042,564.263
628.125,564.263
630.208,564.263
632.292,564.263
634.375,564.263
636.458,564.263
638.542,564.263
640.625,564.263
642.708,564.263
644.792,564.263
646.875,564.263
648.958,564.263
651.042,564.263
653.125,564.263
655.208,564.263
657.292,564.263
659.375,564.263
661.458,564.263
663.542,564.263
665.625,564.263
667.708,564.263
669.792,689.655
671.875,689.655
673.958,689.655
676.042,689.655
678.125,689.655
680.208,689.655
682.292,815.047
684.375,940.439
686.458,1065.83
688.542,1065.83
690.625,1065.83
692.708,1065.83
694.792,940.439
696.875,815.047
698.958,438.871
701.042,689.655
703.125,689.655
705.208,689.655
707.292,689.655
709.375,689.655
711.458,689.655
713.542,564.263
715.625,564.263
717.708,564.263
719.792,564.263
721.875,564.263
723.958,564.263
726.042,564.263
728.125,564.263
730.208,564.263
732.292,564.263
734.375,564.263
736.458,564.263
738.542,564.263
740.625,564.263
742.708,564.263
744.792,564.263
746.875,564.263
748.958,564.263
751.042,564.263
753.125,564.263
755.208,564.263
757.292,564.263
759.375,564.263
761.458,564.263
763.542,564.263
765.625,564.263
767.708,564.263
769.792,564.263
771.875,689.655
773.958,689.655
776.042,689.655
778.125,689.655
780.208,689.655
782.292,815.047
784.375,1065.83
786.458,1191.22
788.542,1191.22
790.625,1191.22
792.708,1316.61
794.792,1316.61
796.875,1316.61
798.958,689.655
801.042,1065.83
803.125,1065.83
805.208,1065.83
807.292,815.047
809.375,689.655
811.458,689.655
813.542,689.655
815.625,689.655
817.708,689.655
819.792,689.655
821.875,689.655
823.958,689.655
826.042,689.655
828.125,689.655
830.208,689.655
832.292,689.655
834.375,689.655
836.458,689.655
838.542,689.655
840.625,689.655
842.708,689.655
844.792,689.655
846.875,564.263
848.958,564.263
851.042,564.263
853.125,564.263
855.208,564.263
857.292,564.263
859.375,564.263
861.458,564.263
863.542,564.263
865.625,564.263
867.708,564.263
869.792,564.263
871.875,564.263
873.958,564.263
876.042,564.263
878.125,564.263
880.208,564.263
882.292,564.263
884.375,564.263
886.458,564.263
888.542,564.263
890.625,564.263
892.708,564.263
894.792,564.263
896.875,564.263
898.958,564.263
901.042,564.263
903.125,564.263
905.208,564.263
907.292,564.263
909.375,564.263
911.458,564.263
913.542,564.263
915.625,564.263
917.708,564.263
919.792,564.263
921.875,564.263
923.958,564.263
926.042,564.263
928.125,564.263
930.208,564.263
932.292,564.263
934.375,564.263
936.458,564.263
938.542,564.263
940.625,564.263
942.708,564.263
944.792,689.655
946.875,689.655
948.958,438.871
951.042,689.655
953.125,689.655
955.208,689.655
957.292,689.655
959.375,689.655
961.458,689.655
963.542,689.655
965.625,689.655
967.708,689.655
969.792,689.655
971.875,689.655
973.958,689.655
976.042,689.655
978.125,689.655
980.208,689.655
982.292,689.655
984.375,689.655
986.458,689.655
988.542,689.655
990.625,689.655
992.708,564.263
994.792,564.263
996.875,564.263
998.958,564.263
1001.04,564.263
1003.13,564.263
1005.21,564.263
1007.29,564.263
1009.38,564.263
1011.46,564.263
1013.54,564.263
1015.63,564.263
1017.71,564.263
1019.79,564.263
1021.88,564.263
1023.96,564.263
1026.04,564.263
1028.13,564.263
1030.21,564.263
1032.29,564.263
1034.38,564.263
1036.46,564.263
1038.54,564.263
1040.63,564.263
1042.71,564.263
1044.79,564.263
1046.88,564.263
1048.96,438.871
1051.04,689.655
1053.13,689.655
1055.21,815.047
1057.29,1065.83
1059.38,1065.83
1061.46,1065.83
1063.54,1065.83
1065.63,1065.83
1067.71,1065.83
1069.79,815.047
1071.88,1065.83
1073.96,1065.83
1076.04,1065.83
1078.13,1065.83
1080.21,940.439
1082.29,689.655
1084.38,689.655
1086.46,689.655
1088.54,689.655
1090.63,564.263
1092.71,564.263
1094.79,564.263
1096.88,564.263
1098.96,564.263
1101.04,564.263
1103.13,564.263
1105.21,564.263
1107.29,564.263
1109.38,564.263
1111.46,564.263
1113.54,564.263
1115.63,564.263
1117.71,564.263
1119.79,564.263
1121.88,564.263
1123.96,564.263
1126.04,564.263
1128.13,564.263
1130.21,564.263
1132.29,564.263
1134.38,689.655
1136.46,689.655
1138.54,689.655
1140.63,689.655
1142.71,689.655
1144.79,689.655
1146.88,815.047
1148.96,1065.83
1151.04,1191.22
1153.13,1316.61
1155.21,1316.61
1157.29,1442.01
1159.38,1442.01
1161.46,1316.61
1163.54,1316.61
1165.63,1316.61
1167.71,1191.22
1169.79,815.047
1171.88,689.655
1173.96,689.655
1176.04,689.655
1178.13,689.655
1180.21,689.655
1182.29,689.655
1184.38,564.263
1186.46,564.263
1188.54,564.263
1190.63,564.263
