,GP550R
RamanShit,Intensity
257.944,10.8696
261.059,-10.8696
264.174,-32.6087
267.29,-10.8696
270.405,-10.8696
273.52,-10.8696
276.636,-10.8696
279.751,-10.8696
282.866,-10.8696
285.981,-10.8696
289.097,-32.6087
292.212,-32.6087
295.327,-10.8696
298.442,-10.8696
301.558,-10.8696
304.673,-10.8696
307.788,-10.8696
310.903,-10.8696
314.019,-10.8696
317.134,10.8696
320.249,-10.8696
323.364,-10.8696
326.48,-10.8696
329.595,10.8696
332.71,10.8696
335.826,10.8696
338.941,10.8696
342.056,10.8696
345.171,10.8696
348.287,10.8696
351.402,32.6087
354.517,76.087
357.632,119.565
360.748,250
363.863,380.435
366.978,1163.04
370.093,1423.91
373.209,554.348
376.324,402.174
379.439,358.696
382.555,293.478
385.67,293.478
388.785,293.478
391.9,315.217
395.016,358.696
398.131,445.652
401.246,836.957
404.361,1163.04
407.477,2250
410.592,2967.39
413.707,1184.78
416.822,1163.04
419.938,1010.87
423.053,771.739
426.168,554.348
429.283,423.913
432.399,358.696
435.514,293.478
438.629,250
441.745,250
444.86,250
447.975,228.261
451.09,184.783
454.206,141.304
457.321,119.565
460.436,119.565
463.551,119.565
466.667,97.8261
469.782,97.8261
472.897,97.8261
476.012,97.8261
479.128,76.087
482.243,54.3478
485.358,32.6087
488.474,32.6087
491.589,10.8696
494.704,10.8696
497.819,10.8696
500.935,32.6087
504.05,32.6087
507.165,32.6087
510.28,32.6087
513.396,32.6087
516.511,32.6087
519.626,32.6087
522.741,10.8696
525.857,10.8696
528.972,10.8696
532.087,10.8696
535.202,10.8696
538.318,10.8696
541.433,10.8696
544.548,10.8696
547.664,10.8696
550.779,10.8696
553.894,10.8696
557.009,32.6087
560.125,76.087
563.24,97.8261
566.355,119.565
569.47,206.522
572.586,97.8261
575.701,97.8261
578.816,76.087
581.931,10.8696
585.047,10.8696
588.162,10.8696
591.277,10.8696
594.393,10.8696
597.508,10.8696
600.623,10.8696
603.738,10.8696
606.854,10.8696
609.969,10.8696
613.084,10.8696
616.199,10.8696
619.315,10.8696
622.43,54.3478
625.545,184.783
628.66,293.478
631.776,402.174
634.891,510.87
638.006,836.957
641.121,510.87
644.237,489.13
647.352,402.174
650.467,250
653.583,163.043
656.698,119.565
659.813,119.565
662.928,119.565
666.044,119.565
669.159,97.8261
672.274,97.8261
675.389,97.8261
678.505,97.8261
681.62,76.087
684.735,76.087
687.85,76.087
690.966,76.087
694.081,76.087
697.196,76.087
700.312,54.3478
703.427,32.6087
706.542,32.6087
709.657,10.8696
712.773,10.8696
715.888,10.8696
719.003,32.6087
722.118,32.6087
725.234,76.087
728.349,141.304
731.464,228.261
734.579,293.478
737.695,380.435
740.81,641.304
743.925,706.522
747.04,423.913
750.156,402.174
753.271,358.696
756.386,293.478
759.502,206.522
762.617,163.043
765.732,119.565
768.847,97.8261
771.963,76.087
775.078,76.087
778.193,76.087
781.308,76.087
784.424,32.6087
787.539,54.3478
790.654,54.3478
793.769,54.3478
796.885,76.087
800,76.087
803.115,76.087
806.231,76.087
809.346,76.087
812.461,54.3478
815.576,54.3478
818.692,54.3478
821.807,32.6087
824.922,32.6087
828.037,32.6087
831.153,32.6087
834.268,32.6087
837.383,32.6087
840.498,10.8696
843.614,10.8696
846.729,10.8696
849.844,10.8696
852.96,10.8696
856.075,10.8696
859.19,32.6087
862.305,32.6087
865.421,32.6087
868.536,32.6087
871.651,32.6087
874.766,32.6087
877.882,32.6087
880.997,10.8696
884.112,10.8696
887.227,10.8696
890.343,10.8696
893.458,10.8696
896.573,10.8696
899.688,10.8696
902.804,10.8696
905.919,10.8696
909.034,10.8696
912.15,10.8696
915.265,10.8696
918.38,10.8696
921.495,10.8696
924.611,10.8696
927.726,10.8696
930.841,10.8696
933.956,10.8696
937.072,10.8696
940.187,10.8696
943.302,32.6087
946.417,32.6087
949.533,32.6087
952.648,32.6087
955.763,32.6087
958.879,32.6087
961.994,32.6087
965.109,32.6087
968.224,32.6087
971.34,32.6087
974.455,32.6087
977.57,32.6087
980.685,32.6087
983.801,32.6087
986.916,32.6087
990.031,10.8696
993.146,10.8696
996.262,10.8696
999.377,10.8696
1002.49,10.8696
1005.61,10.8696
1008.72,10.8696
1011.84,10.8696
1014.95,10.8696
1018.07,10.8696
1021.18,10.8696
1024.3,10.8696
1027.41,10.8696
1030.53,10.8696
1033.64,10.8696
1036.76,10.8696
1039.88,10.8696
1042.99,10.8696
1046.11,10.8696
1049.22,10.8696
1052.34,10.8696
1055.45,10.8696
1058.57,10.8696
1061.68,10.8696
1064.8,10.8696
1067.91,10.8696
1071.03,10.8696
1074.14,10.8696
1077.26,10.8696
1080.37,10.8696
1083.49,10.8696
1086.6,10.8696
1089.72,10.8696
1092.83,10.8696
1095.95,10.8696
1099.07,10.8696
1102.18,10.8696
1105.3,10.8696
1108.41,10.8696
1111.53,10.8696
1114.64,10.8696
1117.76,10.8696
1120.87,10.8696
1123.99,10.8696
1127.1,10.8696
1130.22,10.8696
1133.33,32.6087
1136.45,54.3478
1139.56,76.087
1142.68,97.8261
1145.79,97.8261
1148.91,119.565
1152.02,163.043
1155.14,184.783
1158.26,206.522
1161.37,206.522
1164.49,228.261
1167.6,228.261
1170.72,250
1173.83,271.739
1176.95,293.478
1180.06,293.478
1183.18,293.478
1186.29,293.478
1189.41,293.478
1192.52,293.478
1195.64,293.478
1198.75,250
1201.87,228.261
1204.98,184.783
1208.1,184.783
1211.21,163.043
1214.33,141.304
1217.45,119.565
1220.56,76.087
1223.68,76.087
1226.79,76.087
1229.91,54.3478
1233.02,10.8696
1236.14,-10.8696
1239.25,-10.8696
1242.37,-10.8696
1245.48,-32.6087
1248.6,-32.6087
1251.71,-32.6087
1254.83,-32.6087
1257.94,10.8696
1261.06,76.087
1264.17,119.565
1267.29,163.043
1270.4,250
1273.52,402.174
1276.64,532.609
1279.75,597.826
1282.87,771.739
1285.98,1076.09
1289.1,1380.43
1292.21,1597.83
1295.33,2010.87
1298.44,2119.57
1301.56,2358.7
1304.67,2750
1307.79,3054.35
1310.9,3271.74
1314.02,3510.87
1317.13,3793.48
1320.25,3967.39
1323.36,4054.35
1326.48,4250
1329.6,4402.17
1332.71,4467.39
1335.83,4489.13
1338.94,4489.13
1342.06,4467.39
1345.17,4402.17
1348.29,4228.26
1351.4,4097.83
1354.52,4032.61
1357.63,3793.48
1360.75,3467.39
1363.86,3271.74
1366.98,3184.78
1370.09,2923.91
1373.21,2532.61
1376.32,2250
1379.44,2032.61
1382.55,1836.96
1385.67,1663.04
1388.79,1380.43
1391.9,1184.78
1395.02,1054.35
1398.13,923.913
1401.25,728.261
1404.36,554.348
1407.48,489.13
1410.59,445.652
1413.71,358.696
1416.82,293.478
1419.94,184.783
1423.05,119.565
1426.17,119.565
1429.28,97.8261
1432.4,54.3478
1435.51,32.6087
1438.63,10.8696
1441.74,10.8696
1444.86,10.8696
1447.98,10.8696
1451.09,10.8696
1454.21,32.6087
1457.32,32.6087
1460.44,54.3478
1463.55,76.087
1466.67,76.087
1469.78,76.087
1472.9,119.565
1476.01,163.043
1479.13,228.261
1482.24,293.478
1485.36,315.217
1488.47,358.696
1491.59,445.652
1494.7,489.13
1497.82,489.13
1500.93,532.609
1504.05,576.087
1507.17,641.304
1510.28,619.565
1513.4,619.565
1516.51,619.565
1519.63,619.565
1522.74,619.565
1525.86,619.565
1528.97,576.087
1532.09,532.609
1535.2,510.87
1538.32,489.13
1541.43,467.391
1544.55,423.913
1547.66,402.174
1550.78,380.435
1553.89,336.957
1557.01,293.478
1560.12,206.522
1563.24,184.783
1566.36,163.043
1569.47,141.304
1572.59,119.565
1575.7,76.087
1578.82,76.087
1581.93,76.087
1585.05,76.087
1588.16,76.087
1591.28,76.087
1594.39,76.087
1597.51,97.8261
1600.62,97.8261
1603.74,163.043
1606.85,228.261
1609.97,228.261
1613.08,250
1616.2,250
1619.31,293.478
1622.43,315.217
1625.55,358.696
1628.66,402.174
1631.78,423.913
1634.89,467.391
1638.01,510.87
1641.12,532.609
1644.24,554.348
1647.35,576.087
1650.47,597.826
1653.58,597.826
1656.7,597.826
1659.81,619.565
1662.93,641.304
1666.04,641.304
1669.16,641.304
1672.27,619.565
1675.39,619.565
1678.5,597.826
1681.62,597.826
1684.74,597.826
1687.85,576.087
1690.97,532.609
1694.08,510.87
1697.2,467.391
1700.31,467.391
1703.43,445.652
1706.54,423.913
1709.66,402.174
1712.77,358.696
1715.89,336.957
1719,315.217
1722.12,271.739
1725.23,228.261
1728.35,228.261
1731.46,206.522
1734.58,163.043
1737.69,141.304
1740.81,141.304
1743.93,119.565
1747.04,119.565
1750.16,119.565
1753.27,97.8261
1756.39,97.8261
1759.5,97.8261
1762.62,76.087
1765.73,76.087
1768.85,76.087
1771.96,76.087
1775.08,76.087
1778.19,76.087
1781.31,76.087
1784.42,76.087
1787.54,97.8261
1790.65,119.565
1793.77,119.565
1796.88,119.565
1800,119.565
1803.12,119.565
1806.23,119.565
1809.35,163.043
1812.46,184.783
1815.58,184.783
1818.69,184.783
1821.81,206.522
1824.92,206.522
1828.04,228.261
1831.15,228.261
1834.27,228.261
1837.38,228.261
1840.5,250
1843.61,228.261
1846.73,228.261
1849.84,228.261
1852.96,228.261
1856.07,228.261
1859.19,228.261
1862.31,228.261
1865.42,228.261
1868.54,228.261
1871.65,228.261
1874.77,228.261
1877.88,206.522
1881,206.522
1884.11,184.783
1887.23,184.783
1890.34,163.043
1893.46,119.565
1896.57,119.565
1899.69,119.565
1902.8,119.565
1905.92,97.8261
1909.03,97.8261
1912.15,97.8261
1915.26,97.8261
1918.38,97.8261
1921.5,97.8261
1924.61,76.087
1927.73,76.087
1930.84,76.087
1933.96,54.3478
1937.07,32.6087
1940.19,32.6087
1943.3,32.6087
1946.42,32.6087
1949.53,32.6087
1952.65,32.6087
1955.76,32.6087
1958.88,32.6087
1961.99,32.6087
1965.11,32.6087
1968.22,32.6087
1971.34,32.6087
1974.45,10.8696
1977.57,10.8696
1980.69,10.8696
1983.8,10.8696
1986.92,10.8696
1990.03,10.8696
1993.15,10.8696
1996.26,10.8696
1999.38,10.8696
2002.49,10.8696
2005.61,10.8696
2008.72,10.8696
2011.84,10.8696
2014.95,10.8696
2018.07,10.8696
2021.18,10.8696
2024.3,10.8696
2027.41,10.8696
2030.53,10.8696
2033.64,10.8696
2036.76,10.8696
2039.88,10.8696
2042.99,10.8696
2046.11,10.8696
2049.22,10.8696
2052.34,10.8696
2055.45,10.8696
2058.57,10.8696
2061.68,10.8696
2064.8,10.8696
2067.91,32.6087
2071.03,32.6087
2074.14,32.6087
2077.26,32.6087
2080.37,32.6087
2083.49,32.6087
2086.6,32.6087
2089.72,10.8696
2092.83,10.8696
2095.95,32.6087
2099.07,32.6087
2102.18,32.6087
2105.3,54.3478
2108.41,54.3478
2111.53,54.3478
2114.64,54.3478
2117.76,54.3478
2120.87,54.3478
2123.99,54.3478
2127.1,32.6087
2130.22,32.6087
2133.33,32.6087
2136.45,32.6087
2139.56,32.6087
2142.68,32.6087
2145.79,32.6087
2148.91,32.6087
2152.02,32.6087
2155.14,32.6087
2158.26,32.6087
2161.37,32.6087
2164.49,32.6087
2167.6,32.6087
2170.72,32.6087
2173.83,32.6087
2176.95,54.3478
2180.06,54.3478
2183.18,32.6087
2186.29,32.6087
2189.41,32.6087
2192.52,32.6087
2195.64,32.6087
2198.75,32.6087
2201.87,32.6087
2204.98,32.6087
2208.1,32.6087
2211.21,32.6087
2214.33,32.6087
2217.45,32.6087
2220.56,32.6087
2223.68,32.6087
2226.79,54.3478
2229.91,54.3478
2233.02,54.3478
2236.14,54.3478
2239.25,76.087
2242.37,76.087
2245.48,76.087
2248.6,76.087
2251.71,76.087
2254.83,76.087
2257.94,76.087
2261.06,76.087
2264.17,76.087
2267.29,76.087
2270.4,76.087
2273.52,76.087
2276.64,97.8261
2279.75,97.8261
2282.87,97.8261
2285.98,76.087
2289.1,54.3478
2292.21,54.3478
2295.33,32.6087
2298.44,32.6087
2301.56,32.6087
2304.67,32.6087
2307.79,10.8696
2310.9,10.8696
2314.02,10.8696
2317.13,10.8696
2320.25,10.8696
2323.36,10.8696
2326.48,10.8696
