,GP550R
RamanShit,Intensity
261.755,15.748
264.815,251.969
267.874,724.409
270.934,1527.56
273.994,2000
277.053,2377.95
280.113,2000
283.172,1763.78
286.232,1385.83
289.291,1149.61
292.351,1102.36
295.411,1102.36
298.47,1102.36
301.53,1149.61
304.589,1244.09
307.649,1433.07
310.709,1669.29
313.768,1858.27
316.828,1952.76
319.887,2000
322.947,2094.49
326.006,2236.22
329.066,2614.17
332.126,3181.1
335.185,3842.52
338.245,4314.96
341.304,4503.94
344.364,4551.18
347.424,4598.43
350.483,4881.89
353.543,4503.94
356.602,3937.01
359.662,2850.39
362.721,2141.73
365.781,1858.27
368.841,1669.29
371.9,1433.07
374.96,1102.36
378.019,913.386
381.079,724.409
384.138,818.898
387.198,818.898
390.258,818.898
393.317,818.898
396.377,771.654
399.436,629.921
402.496,299.213
405.556,110.236
408.615,110.236
411.675,110.236
414.734,299.213
417.794,771.654
420.853,1622.05
423.913,2661.42
426.973,3700.79
430.032,3842.52
433.092,3417.32
436.151,3606.3
439.211,3653.54
442.271,4267.72
445.33,5732.28
448.39,7574.8
451.449,8944.88
454.509,10315
457.568,10031.5
460.628,9322.83
463.688,8803.15
466.747,7858.27
469.807,6960.63
472.866,5921.26
475.926,4834.65
478.986,3984.25
482.045,3370.08
485.105,2944.88
488.164,2377.95
491.224,1716.54
494.283,1244.09
497.343,960.63
500.403,1102.36
503.462,1149.61
506.522,1244.09
509.581,1622.05
512.641,1338.58
515.7,1291.34
518.76,1102.36
521.82,677.165
524.879,346.457
527.939,157.48
530.998,110.236
534.058,62.9921
537.118,110.236
540.177,110.236
543.237,204.724
546.296,299.213
549.356,393.701
552.415,582.677
555.475,1007.87
558.535,1622.05
561.594,2614.17
564.654,4362.2
567.713,5496.06
570.773,7196.85
573.833,5496.06
576.892,4740.16
579.952,3322.83
583.011,2614.17
586.071,2519.69
589.13,2661.42
592.19,2944.88
595.25,3653.54
598.309,4456.69
601.369,4929.13
604.428,5448.82
607.488,4929.13
610.548,4692.91
613.607,3984.25
616.667,3133.86
619.726,2519.69
622.786,1952.76
625.845,1433.07
628.905,1055.12
631.965,771.654
635.024,629.921
638.084,629.921
641.143,582.677
644.203,488.189
647.262,440.945
650.322,440.945
653.382,440.945
656.441,440.945
659.501,488.189
662.56,488.189
665.62,488.189
668.68,488.189
671.739,488.189
674.799,535.433
677.858,582.677
680.918,677.165
683.977,866.142
687.037,1007.87
690.097,1055.12
693.156,1102.36
696.216,1007.87
699.275,960.63
702.335,818.898
705.395,629.921
708.454,440.945
711.514,299.213
714.573,157.48
717.633,62.9921
720.692,62.9921
723.752,62.9921
726.812,62.9921
729.871,62.9921
732.931,62.9921
735.99,110.236
739.05,110.236
742.11,62.9921
745.169,62.9921
748.229,62.9921
751.288,62.9921
754.348,62.9921
757.407,62.9921
760.467,62.9921
763.527,62.9921
766.586,62.9921
769.646,62.9921
772.705,62.9921
775.765,62.9921
778.824,62.9921
781.884,62.9921
784.944,62.9921
788.003,62.9921
791.063,62.9921
794.122,62.9921
797.182,62.9921
800.242,62.9921
803.301,62.9921
806.361,62.9921
809.42,62.9921
812.48,110.236
815.539,157.48
818.599,157.48
821.659,157.48
824.718,204.724
827.778,251.969
830.837,346.457
833.897,440.945
836.957,440.945
840.016,488.189
843.076,488.189
846.135,582.677
849.195,629.921
852.254,724.409
855.314,913.386
858.374,1244.09
861.433,1763.78
864.493,2472.44
867.552,3322.83
870.612,4267.72
873.671,5070.87
876.731,5496.06
879.791,5779.53
882.85,6110.24
885.91,6488.19
888.969,7007.87
892.029,7338.58
895.089,7716.54
898.148,7338.58
901.208,6913.39
904.267,6440.94
907.327,6393.7
910.386,6346.46
913.446,6299.21
916.506,6535.43
919.565,6724.41
922.625,5921.26
925.684,5307.09
928.744,4314.96
931.804,3370.08
934.863,2566.93
937.923,1763.78
940.982,1196.85
944.042,771.654
947.101,440.945
950.161,251.969
953.221,157.48
956.28,157.48
959.34,157.48
962.399,157.48
965.459,204.724
968.519,251.969
971.578,393.701
974.638,629.921
977.697,1102.36
980.757,1858.27
983.816,2330.71
986.876,2992.13
989.936,3653.54
992.995,2141.73
996.055,1527.56
999.114,818.898
1002.17,440.945
1005.23,204.724
1008.29,110.236
1011.35,62.9921
1014.41,62.9921
1017.47,62.9921
1020.53,157.48
1023.59,393.701
1026.65,535.433
1029.71,535.433
1032.77,488.189
1035.83,488.189
1038.89,346.457
1041.95,488.189
1045.01,488.189
1048.07,535.433
1051.13,535.433
1054.19,488.189
1057.25,488.189
1060.31,440.945
1063.37,346.457
1066.43,251.969
1069.48,204.724
1072.54,251.969
1075.6,393.701
1078.66,724.409
1081.72,1196.85
1084.78,1858.27
1087.84,2755.91
1090.9,3275.59
1093.96,3984.25
1097.02,3275.59
1100.08,2944.88
1103.14,2094.49
1106.2,1291.34
1109.26,866.142
1112.32,582.677
1115.38,440.945
1118.44,393.701
1121.5,299.213
1124.56,299.213
1127.62,299.213
1130.68,393.701
1133.74,535.433
1136.8,677.165
1139.86,818.898
1142.91,1007.87
1145.97,1291.34
1149.03,1527.56
1152.09,1669.29
1155.15,1716.54
1158.21,1858.27
1161.27,2000
1164.33,2283.46
1167.39,2614.17
1170.45,2755.91
1173.51,2850.39
1176.57,2472.44
1179.63,2000
1182.69,1574.8
1185.75,1149.61
1188.81,866.142
1191.87,724.409
1194.93,629.921
1197.99,488.189
1201.05,440.945
1204.11,488.189
1207.17,535.433
1210.23,629.921
1213.29,818.898
1216.34,1007.87
1219.4,1196.85
1222.46,1244.09
1225.52,1291.34
1228.58,1291.34
1231.64,1196.85
1234.7,1055.12
1237.76,913.386
1240.82,771.654
1243.88,629.921
1246.94,488.189
1250,346.457
1253.06,299.213
1256.12,157.48
1259.18,110.236
1262.24,110.236
1265.3,110.236
1268.36,157.48
1271.42,299.213
1274.48,488.189
1277.54,677.165
1280.6,866.142
1283.66,1007.87
1286.71,1102.36
1289.77,1007.87
1292.83,913.386
1295.89,677.165
1298.95,440.945
1302.01,299.213
1305.07,204.724
1308.13,157.48
1311.19,110.236
1314.25,110.236
1317.31,110.236
1320.37,110.236
1323.43,110.236
1326.49,157.48
1329.55,299.213
1332.61,535.433
1335.67,866.142
1338.73,1244.09
1341.79,1574.8
1344.85,1811.02
1347.91,1905.51
1350.97,2094.49
1354.03,1811.02
1357.09,1669.29
1360.14,1433.07
1363.2,1244.09
1366.26,1055.12
1369.32,866.142
1372.38,724.409
1375.44,677.165
1378.5,629.921
1381.56,535.433
1384.62,535.433
1387.68,535.433
1390.74,535.433
1393.8,629.921
1396.86,677.165
1399.92,866.142
1402.98,960.63
1406.04,960.63
1409.1,1102.36
1412.16,1055.12
1415.22,1007.87
1418.28,913.386
1421.34,771.654
1424.4,677.165
1427.46,582.677
1430.52,440.945
1433.57,393.701
1436.63,393.701
1439.69,346.457
1442.75,346.457
1445.81,346.457
1448.87,299.213
1451.93,299.213
1454.99,299.213
1458.05,204.724
1461.11,204.724
1464.17,204.724
1467.23,204.724
1470.29,204.724
1473.35,204.724
1476.41,251.969
1479.47,251.969
1482.53,299.213
1485.59,299.213
1488.65,299.213
1491.71,299.213
1494.77,299.213
1497.83,299.213
1500.89,251.969
1503.95,251.969
1507,251.969
1510.06,251.969
1513.12,251.969
1516.18,204.724
1519.24,204.724
1522.3,157.48
1525.36,110.236
1528.42,62.9921
1531.48,62.9921
1534.54,62.9921
1537.6,62.9921
1540.66,62.9921
1543.72,110.236
1546.78,157.48
1549.84,157.48
1552.9,251.969
1555.96,440.945
1559.02,535.433
1562.08,582.677
1565.14,629.921
1568.2,677.165
1571.26,771.654
1574.32,866.142
1577.38,771.654
1580.43,724.409
1583.49,677.165
1586.55,629.921
1589.61,582.677
1592.67,582.677
1595.73,582.677
1598.79,582.677
1601.85,629.921
1604.91,677.165
1607.97,724.409
1611.03,724.409
1614.09,724.409
1617.15,629.921
1620.21,346.457
1623.27,110.236
1626.33,62.9921
1629.39,62.9921
1632.45,62.9921
1635.51,62.9921
1638.57,62.9921
1641.63,62.9921
1644.69,62.9921
1647.75,110.236
1650.81,157.48
1653.86,157.48
1656.92,204.724
1659.98,251.969
1663.04,299.213
1666.1,346.457
1669.16,393.701
1672.22,393.701
1675.28,393.701
1678.34,393.701
1681.4,440.945
1684.46,440.945
1687.52,488.189
1690.58,488.189
1693.64,488.189
1696.7,535.433
1699.76,582.677
1702.82,582.677
1705.88,629.921
1708.94,629.921
1712,629.921
1715.06,629.921
1718.12,677.165
1721.18,582.677
1724.24,535.433
1727.29,535.433
1730.35,535.433
1733.41,535.433
1736.47,535.433
1739.53,488.189
1742.59,440.945
1745.65,393.701
1748.71,393.701
1751.77,393.701
1754.83,346.457
1757.89,346.457
1760.95,346.457
1764.01,346.457
1767.07,346.457
1770.13,393.701
1773.19,393.701
1776.25,393.701
1779.31,393.701
1782.37,393.701
1785.43,299.213
1788.49,299.213
1791.55,204.724
1794.61,157.48
1797.67,157.48
1800.72,157.48
1803.78,157.48
1806.84,157.48
1809.9,157.48
1812.96,157.48
1816.02,157.48
1819.08,157.48
1822.14,157.48
1825.2,110.236
1828.26,110.236
1831.32,110.236
1834.38,110.236
1837.44,110.236
1840.5,110.236
1843.56,110.236
1846.62,110.236
1849.68,110.236
1852.74,110.236
1855.8,110.236
1858.86,110.236
1861.92,110.236
1864.98,110.236
1868.04,110.236
1871.1,110.236
1874.15,110.236
1877.21,157.48
1880.27,157.48
1883.33,157.48
1886.39,157.48
1889.45,110.236
1892.51,110.236
1895.57,62.9921
1898.63,62.9921
1901.69,62.9921
1904.75,110.236
1907.81,110.236
1910.87,157.48
1913.93,157.48
1916.99,157.48
1920.05,204.724
1923.11,204.724
1926.17,204.724
1929.23,204.724
1932.29,299.213
1935.35,346.457
1938.41,346.457
1941.47,393.701
1944.52,393.701
1947.58,393.701
1950.64,393.701
1953.7,393.701
1956.76,440.945
1959.82,488.189
1962.88,488.189
1965.94,488.189
1969,488.189
1972.06,440.945
1975.12,440.945
1978.18,440.945
1981.24,440.945
1984.3,440.945
1987.36,440.945
1990.42,440.945
1993.48,440.945
1996.54,440.945
1999.6,440.945
2002.66,488.189
2005.72,488.189
2008.78,440.945
2011.84,393.701
2014.9,346.457
2017.95,346.457
2021.01,346.457
2024.07,346.457
2027.13,346.457
2030.19,346.457
2033.25,346.457
2036.31,346.457
2039.37,346.457
2042.43,346.457
2045.49,251.969
2048.55,346.457
2051.61,346.457
2054.67,346.457
2057.73,346.457
2060.79,299.213
2063.85,251.969
2066.91,157.48
2069.97,110.236
2073.03,110.236
2076.09,110.236
2079.15,110.236
2082.21,110.236
2085.27,157.48
2088.33,157.48
2091.38,157.48
2094.44,204.724
2097.5,204.724
2100.56,204.724
2103.62,204.724
2106.68,204.724
2109.74,204.724
2112.8,204.724
2115.86,204.724
2118.92,204.724
2121.98,204.724
2125.04,204.724
2128.1,204.724
2131.16,204.724
2134.22,204.724
2137.28,204.724
2140.34,204.724
2143.4,204.724
2146.46,204.724
2149.52,110.236
2152.58,157.48
2155.64,157.48
2158.7,157.48
2161.76,157.48
2164.81,157.48
2167.87,157.48
2170.93,157.48
2173.99,204.724
2177.05,204.724
2180.11,204.724
2183.17,204.724
2186.23,204.724
2189.29,251.969
2192.35,204.724
2195.41,204.724
2198.47,204.724
2201.53,204.724
2204.59,204.724
2207.65,251.969
2210.71,251.969
2213.77,299.213
2216.83,299.213
2219.89,346.457
2222.95,393.701
2226.01,440.945
2229.07,440.945
2232.13,440.945
2235.19,393.701
2238.24,393.701
2241.3,346.457
2244.36,346.457
2247.42,346.457
2250.48,346.457
2253.54,346.457
2256.6,346.457
2259.66,346.457
2262.72,346.457
2265.78,299.213
2268.84,299.213
2271.9,299.213
2274.96,299.213
2278.02,299.213
2281.08,346.457
2284.14,346.457
2287.2,346.457
2290.26,440.945
2293.32,251.969
