,GP550R
RamanShit,Intensity
258.828,31.4961
261.878,97.6378
264.928,78.7402
267.978,59.8425
271.027,12.5984
274.077,50.3937
277.127,59.8425
280.177,97.6378
283.226,201.575
286.276,286.614
289.326,314.961
292.376,314.961
295.425,314.961
298.475,305.512
301.525,286.614
304.575,220.472
307.624,154.331
310.674,107.087
313.724,78.7402
316.774,50.3937
319.823,31.4961
322.873,31.4961
325.923,31.4961
328.973,40.9449
332.022,69.2913
335.072,78.7402
338.122,88.189
341.172,107.087
344.222,125.984
347.271,154.331
350.321,211.024
353.371,343.307
356.421,494.488
359.47,607.874
362.52,655.118
365.57,721.26
368.62,655.118
371.669,626.772
374.719,551.181
377.769,466.142
380.819,390.551
383.868,333.858
386.918,305.512
389.968,277.165
393.018,220.472
396.067,267.717
399.117,277.165
402.167,314.961
405.217,409.449
408.266,475.591
411.316,494.488
414.366,532.283
417.416,475.591
420.465,428.346
423.515,314.961
426.565,220.472
429.615,135.433
432.665,97.6378
435.714,69.2913
438.764,40.9449
441.814,12.5984
444.864,3.14961
447.913,3.14961
450.963,12.5984
454.013,31.4961
457.063,59.8425
460.112,88.189
463.162,107.087
466.212,163.78
469.262,248.819
472.311,352.756
475.361,503.937
478.411,692.913
481.461,900.787
484.51,1174.8
487.56,1212.6
490.61,995.276
493.66,853.543
496.709,588.976
499.759,418.898
502.809,362.205
505.859,343.307
508.909,324.409
511.958,296.063
515.008,286.614
518.058,229.921
521.108,173.228
524.157,144.882
527.207,125.984
530.257,125.984
533.307,116.535
536.356,107.087
539.406,173.228
542.456,69.2913
545.506,50.3937
548.555,69.2913
551.605,69.2913
554.655,78.7402
557.705,88.189
560.754,78.7402
563.804,69.2913
566.854,69.2913
569.904,59.8425
572.953,50.3937
576.003,59.8425
579.053,69.2913
582.103,88.189
585.152,97.6378
588.202,116.535
591.252,135.433
594.302,192.126
597.352,229.921
600.401,258.268
603.451,277.165
606.501,286.614
609.551,324.409
612.6,352.756
615.65,371.654
618.7,400
621.75,456.693
624.799,503.937
627.849,570.079
630.899,683.465
633.949,844.094
636.998,1051.97
640.048,1174.8
643.098,1269.29
646.148,1174.8
649.197,1118.11
652.247,938.583
655.297,683.465
658.347,437.795
661.396,239.37
664.446,135.433
667.496,107.087
670.546,107.087
673.596,97.6378
676.645,116.535
679.695,154.331
682.745,211.024
685.795,305.512
688.844,409.449
691.894,598.425
694.944,626.772
697.994,428.346
701.043,362.205
704.093,220.472
707.143,125.984
710.193,78.7402
713.242,59.8425
716.292,59.8425
719.342,50.3937
722.392,40.9449
725.441,31.4961
728.491,40.9449
731.541,40.9449
734.591,78.7402
737.64,59.8425
740.69,50.3937
743.74,50.3937
746.79,40.9449
749.839,40.9449
752.889,31.4961
755.939,31.4961
758.989,22.0472
762.039,22.0472
765.088,12.5984
768.138,12.5984
771.188,22.0472
774.238,31.4961
777.287,40.9449
780.337,40.9449
783.387,40.9449
786.437,40.9449
789.486,40.9449
792.536,40.9449
795.586,31.4961
798.636,31.4961
801.685,50.3937
804.735,59.8425
807.785,59.8425
810.835,78.7402
813.884,107.087
816.934,154.331
819.984,135.433
823.034,135.433
826.083,144.882
829.133,154.331
832.183,182.677
835.233,211.024
838.283,229.921
841.332,258.268
844.382,324.409
847.432,390.551
850.482,428.346
853.531,522.835
856.581,645.669
859.631,702.362
862.681,759.055
865.73,702.362
868.78,692.913
871.83,655.118
874.88,598.425
877.929,551.181
880.979,522.835
884.029,475.591
887.079,371.654
890.128,296.063
893.178,258.268
896.228,229.921
899.278,220.472
902.327,211.024
905.377,220.472
908.427,229.921
911.477,267.717
914.526,352.756
917.576,447.244
920.626,570.079
923.676,702.362
926.726,777.953
929.775,825.197
932.825,777.953
935.875,721.26
938.925,598.425
941.974,466.142
945.024,362.205
948.074,305.512
951.124,258.268
954.173,239.37
957.223,239.37
960.273,229.921
963.323,201.575
966.372,182.677
969.422,182.677
972.472,154.331
975.522,135.433
978.571,135.433
981.621,135.433
984.671,125.984
987.721,107.087
990.77,69.2913
993.82,40.9449
996.87,22.0472
999.92,22.0472
1002.97,22.0472
1006.02,31.4961
1009.07,40.9449
1012.12,40.9449
1015.17,40.9449
1018.22,40.9449
1021.27,31.4961
1024.32,40.9449
1027.37,40.9449
1030.42,40.9449
1033.47,50.3937
1036.52,69.2913
1039.57,107.087
1042.62,201.575
1045.67,220.472
1048.72,144.882
1051.77,144.882
1054.82,144.882
1057.87,135.433
1060.91,135.433
1063.96,135.433
1067.01,135.433
1070.06,116.535
1073.11,88.189
1076.16,78.7402
1079.21,59.8425
1082.26,40.9449
1085.31,31.4961
1088.36,22.0472
1091.41,40.9449
1094.46,50.3937
1097.51,69.2913
1100.56,116.535
1103.61,239.37
1106.66,192.126
1109.71,154.331
1112.76,144.882
1115.81,116.535
1118.86,97.6378
1121.91,78.7402
1124.96,97.6378
1128.01,135.433
1131.06,220.472
1134.11,324.409
1137.16,456.693
1140.21,636.22
1143.26,825.197
1146.31,995.276
1149.36,1108.66
1152.41,1184.25
1155.46,1269.29
1158.51,1392.13
1161.56,1590.55
1164.61,1788.98
1167.66,1911.81
1170.71,2044.09
1173.76,1855.12
1176.81,1647.24
1179.86,1250.39
1182.91,900.787
1185.96,570.079
1189,352.756
1192.05,267.717
1195.1,163.78
1198.15,107.087
1201.2,78.7402
1204.25,107.087
1207.3,154.331
1210.35,267.717
1213.4,418.898
1216.45,570.079
1219.5,721.26
1222.55,806.299
1225.6,853.543
1228.65,900.787
1231.7,749.606
1234.75,664.567
1237.8,579.528
1240.85,475.591
1243.9,371.654
1246.95,277.165
1250,211.024
1253.05,173.228
1256.1,97.6378
1259.15,50.3937
1262.2,50.3937
1265.25,59.8425
1268.3,107.087
1271.35,239.37
1274.4,390.551
1277.45,551.181
1280.5,692.913
1283.55,730.709
1286.6,834.646
1289.65,721.26
1292.7,636.22
1295.75,428.346
1298.8,305.512
1301.85,286.614
1304.9,277.165
1307.95,267.717
1311,277.165
1314.04,286.614
1317.09,314.961
1320.14,324.409
1323.19,352.756
1326.24,418.898
1329.29,560.63
1332.34,768.504
1335.39,1023.62
1338.44,1288.19
1341.49,1533.86
1344.54,1666.14
1347.59,1779.53
1350.64,1666.14
1353.69,1637.8
1356.74,1467.72
1359.79,1222.05
1362.84,1023.62
1365.89,862.992
1368.94,711.811
1371.99,560.63
1375.04,485.039
1378.09,400
1381.14,286.614
1384.19,239.37
1387.24,229.921
1390.29,220.472
1393.34,258.268
1396.39,286.614
1399.44,352.756
1402.49,409.449
1405.54,456.693
1408.59,494.488
1411.64,522.835
1414.69,494.488
1417.74,447.244
1420.79,333.858
1423.84,239.37
1426.89,144.882
1429.94,69.2913
1432.99,59.8425
1436.04,40.9449
1439.09,22.0472
1442.13,22.0472
1445.18,22.0472
1448.23,12.5984
1451.28,22.0472
1454.33,69.2913
1457.38,31.4961
1460.43,22.0472
1463.48,12.5984
1466.53,12.5984
1469.58,12.5984
1472.63,22.0472
1475.68,31.4961
1478.73,50.3937
1481.78,69.2913
1484.83,107.087
1487.88,125.984
1490.93,135.433
1493.98,135.433
1497.03,125.984
1500.08,116.535
1503.13,116.535
1506.18,116.535
1509.23,116.535
1512.28,116.535
1515.33,116.535
1518.38,125.984
1521.43,144.882
1524.48,116.535
1527.53,116.535
1530.58,116.535
1533.63,107.087
1536.68,125.984
1539.73,135.433
1542.78,154.331
1545.83,201.575
1548.88,248.819
1551.93,333.858
1554.98,447.244
1558.03,503.937
1561.08,560.63
1564.13,626.772
1567.17,730.709
1570.22,957.48
1573.27,995.276
1576.32,777.953
1579.37,740.157
1582.42,692.913
1585.47,674.016
1588.52,683.465
1591.57,683.465
1594.62,692.913
1597.67,702.362
1600.72,730.709
1603.77,740.157
1606.82,768.504
1609.87,806.299
1612.92,721.26
1615.97,617.323
1619.02,428.346
1622.07,286.614
1625.12,192.126
1628.17,107.087
1631.22,69.2913
1634.27,59.8425
1637.32,40.9449
1640.37,40.9449
1643.42,50.3937
1646.47,50.3937
1649.52,59.8425
1652.57,59.8425
1655.62,59.8425
1658.67,59.8425
1661.72,69.2913
1664.77,69.2913
1667.82,69.2913
1670.87,59.8425
1673.92,50.3937
1676.97,50.3937
1680.02,40.9449
1683.07,31.4961
1686.12,31.4961
1689.17,31.4961
1692.22,40.9449
1695.26,50.3937
1698.31,50.3937
1701.36,69.2913
1704.41,88.189
1707.46,97.6378
1710.51,107.087
1713.56,135.433
1716.61,88.189
1719.66,88.189
1722.71,78.7402
1725.76,88.189
1728.81,97.6378
1731.86,107.087
1734.91,135.433
1737.96,107.087
1741.01,97.6378
1744.06,78.7402
1747.11,59.8425
1750.16,69.2913
1753.21,69.2913
1756.26,78.7402
1759.31,88.189
1762.36,107.087
1765.41,116.535
1768.46,163.78
1771.51,144.882
1774.56,135.433
1777.61,135.433
1780.66,135.433
1783.71,116.535
1786.76,116.535
1789.81,107.087
1792.86,107.087
1795.91,107.087
1798.96,107.087
1802.01,116.535
1805.06,116.535
1808.11,154.331
1811.16,173.228
1814.21,201.575
1817.26,211.024
1820.3,220.472
1823.35,239.37
1826.4,192.126
1829.45,182.677
1832.5,154.331
1835.55,154.331
1838.6,154.331
1841.65,163.78
1844.7,163.78
1847.75,211.024
1850.8,163.78
1853.85,154.331
1856.9,125.984
1859.95,116.535
1863,116.535
1866.05,125.984
1869.1,144.882
1872.15,163.78
1875.2,173.228
1878.25,201.575
1881.3,173.228
1884.35,173.228
1887.4,154.331
1890.45,135.433
1893.5,116.535
1896.55,107.087
1899.6,116.535
1902.65,116.535
1905.7,125.984
1908.75,135.433
1911.8,135.433
1914.85,144.882
1917.9,144.882
1920.95,154.331
1924,173.228
1927.05,182.677
1930.1,182.677
1933.15,192.126
1936.2,201.575
1939.25,229.921
1942.3,182.677
1945.35,144.882
1948.39,107.087
1951.44,107.087
1954.49,116.535
1957.54,125.984
1960.59,135.433
1963.64,163.78
1966.69,116.535
1969.74,116.535
1972.79,78.7402
1975.84,107.087
1978.89,107.087
1981.94,192.126
1984.99,201.575
1988.04,163.78
1991.09,154.331
1994.14,154.331
1997.19,154.331
2000.24,163.78
2003.29,173.228
2006.34,201.575
2009.39,135.433
2012.44,135.433
2015.49,135.433
2018.54,135.433
2021.59,135.433
2024.64,182.677
2027.69,144.882
2030.74,144.882
2033.79,135.433
2036.84,125.984
2039.89,125.984
2042.94,135.433
2045.99,144.882
2049.04,163.78
2052.09,182.677
2055.14,192.126
2058.19,182.677
2061.24,182.677
2064.29,173.228
2067.34,163.78
2070.39,163.78
2073.43,173.228
2076.48,182.677
2079.53,192.126
2082.58,220.472
2085.63,192.126
2088.68,192.126
2091.73,192.126
2094.78,163.78
2097.83,182.677
2100.88,182.677
2103.93,182.677
2106.98,182.677
2110.03,192.126
2113.08,192.126
2116.13,192.126
2119.18,192.126
2122.23,201.575
2125.28,201.575
2128.33,192.126
2131.38,192.126
2134.43,182.677
2137.48,173.228
2140.53,173.228
2143.58,144.882
2146.63,116.535
2149.68,107.087
2152.73,107.087
2155.78,107.087
2158.83,116.535
2161.88,116.535
2164.93,125.984
2167.98,135.433
2171.03,144.882
2174.08,229.921
2177.13,173.228
2180.18,154.331
2183.23,144.882
2186.28,135.433
2189.33,125.984
2192.38,116.535
2195.43,97.6378
2198.48,78.7402
2201.52,107.087
2204.57,116.535
2207.62,125.984
2210.67,144.882
2213.72,163.78
2216.77,173.228
2219.82,192.126
2222.87,229.921
2225.92,163.78
2228.97,125.984
2232.02,78.7402
2235.07,97.6378
2238.12,107.087
2241.17,116.535
2244.22,125.984
2247.27,135.433
2250.32,211.024
2253.37,116.535
2256.42,107.087
2259.47,78.7402
2262.52,78.7402
2265.57,69.2913
2268.62,50.3937
2271.67,69.2913
2274.72,69.2913
2277.77,69.2913
2280.82,78.7402
2283.87,97.6378
2286.92,154.331
2289.97,258.268
2293.02,333.858
