,GP550R
RamanShit,Intensity
258.222,271.028
261.855,252.336
265.488,233.645
269.12,252.336
272.753,345.794
276.386,476.636
280.019,588.785
283.652,663.551
287.285,757.009
290.918,775.701
294.551,794.393
298.184,831.776
301.816,869.159
305.449,887.85
309.082,906.542
312.715,943.925
316.348,1000
319.981,1037.38
323.614,1093.46
327.247,869.159
330.88,719.626
334.512,420.561
338.145,289.72
341.778,271.028
345.411,271.028
349.044,327.103
352.677,383.178
356.31,607.477
359.943,1168.22
363.576,1990.65
367.208,2457.94
370.841,3037.38
374.474,2439.25
378.107,2420.56
381.74,2121.5
385.373,1392.52
389.006,775.701
392.639,495.327
396.272,420.561
399.904,401.869
403.537,439.252
407.17,457.944
410.803,495.327
414.436,532.71
418.069,626.168
421.702,682.243
425.335,700.935
428.967,794.393
432.6,682.243
436.233,588.785
439.866,401.869
443.499,308.411
447.132,271.028
450.765,252.336
454.398,233.645
458.031,233.645
461.663,233.645
465.296,252.336
468.929,252.336
472.562,252.336
476.195,233.645
479.828,233.645
483.461,233.645
487.094,233.645
490.727,214.953
494.359,214.953
497.992,214.953
501.625,233.645
505.258,271.028
508.891,383.178
512.524,495.327
516.157,514.019
519.79,719.626
523.423,495.327
527.055,420.561
530.688,308.411
534.321,252.336
537.954,214.953
541.587,214.953
545.22,214.953
548.853,214.953
552.486,233.645
556.119,252.336
559.751,289.72
563.384,345.794
567.017,401.869
570.65,457.944
574.283,532.71
577.916,383.178
581.549,383.178
585.182,383.178
588.815,327.103
592.447,271.028
596.08,252.336
599.713,214.953
603.346,214.953
606.979,214.953
610.612,214.953
614.245,233.645
617.878,214.953
621.511,214.953
625.143,214.953
628.776,214.953
632.409,214.953
636.042,214.953
639.675,214.953
643.308,214.953
646.941,214.953
650.574,214.953
654.207,214.953
657.839,252.336
661.472,271.028
665.105,289.72
668.738,308.411
672.371,401.869
676.004,514.019
679.637,831.776
683.27,1598.13
686.902,2121.5
690.535,2121.5
694.168,3878.5
697.801,4644.86
701.434,2028.04
705.067,1448.6
708.7,962.617
712.333,738.318
715.966,457.944
719.598,364.486
723.231,308.411
726.864,271.028
730.497,233.645
734.13,233.645
737.763,233.645
741.396,214.953
745.029,214.953
748.662,214.953
752.294,214.953
755.927,214.953
759.56,214.953
763.193,233.645
766.826,271.028
770.459,345.794
774.092,439.252
777.725,420.561
781.358,327.103
784.99,271.028
788.623,233.645
792.256,214.953
795.889,214.953
799.522,214.953
803.155,214.953
806.788,214.953
810.421,214.953
814.054,214.953
817.686,214.953
821.319,233.645
824.952,233.645
828.585,214.953
832.218,214.953
835.851,214.953
839.484,214.953
843.117,214.953
846.75,214.953
850.382,214.953
854.015,214.953
857.648,214.953
861.281,233.645
864.914,233.645
868.547,233.645
872.18,252.336
875.813,271.028
879.446,271.028
883.078,289.72
886.711,289.72
890.344,271.028
893.977,252.336
897.61,214.953
901.243,214.953
904.876,214.953
908.509,214.953
912.141,196.262
915.774,196.262
919.407,196.262
923.04,196.262
926.673,196.262
930.306,196.262
933.939,196.262
937.572,196.262
941.205,196.262
944.837,196.262
948.47,196.262
952.103,196.262
955.736,196.262
959.369,196.262
963.002,196.262
966.635,214.953
970.268,289.72
973.901,364.486
977.533,532.71
981.166,719.626
984.799,981.308
988.432,1093.46
992.065,682.243
995.698,626.168
999.331,626.168
1002.96,607.477
1006.6,607.477
1010.23,644.86
1013.86,794.393
1017.5,1093.46
1021.13,1261.68
1024.76,1598.13
1028.39,2383.18
1032.03,2906.54
1035.66,4719.63
1039.29,4383.18
1042.93,2943.93
1046.56,2925.23
1050.19,2663.55
1053.82,2158.88
1057.46,1785.05
1061.09,1485.98
1064.72,1186.92
1068.36,1018.69
1071.99,943.925
1075.62,813.084
1079.25,682.243
1082.89,532.71
1086.52,420.561
1090.15,345.794
1093.79,308.411
1097.42,289.72
1101.05,271.028
1104.68,271.028
1108.32,271.028
1111.95,233.645
1115.58,214.953
1119.22,214.953
1122.85,196.262
1126.48,196.262
1130.11,196.262
1133.75,196.262
1137.38,196.262
1141.01,196.262
1144.65,196.262
1148.28,196.262
1151.91,196.262
1155.54,196.262
1159.18,196.262
1162.81,196.262
1166.44,196.262
1170.08,196.262
1173.71,214.953
1177.34,214.953
1180.98,252.336
1184.61,289.72
1188.24,327.103
1191.87,364.486
1195.51,439.252
1199.14,551.402
1202.77,626.168
1206.41,682.243
1210.04,682.243
1213.67,682.243
1217.3,682.243
1220.94,644.86
1224.57,570.093
1228.2,514.019
1231.84,439.252
1235.47,383.178
1239.1,364.486
1242.73,308.411
1246.37,233.645
1250,177.57
1253.63,177.57
1257.27,177.57
1260.9,196.262
1264.53,214.953
1268.16,345.794
1271.8,495.327
1275.43,663.551
1279.06,925.234
1282.7,1112.15
1286.33,1448.6
1289.96,2158.88
1293.59,2981.31
1297.23,3841.12
1300.86,4719.63
1304.49,5186.92
1308.13,5448.6
1311.76,5635.51
1315.39,5186.92
1319.02,4906.54
1322.66,4626.17
1326.29,4607.48
1329.92,4588.79
1333.56,4570.09
1337.19,4457.94
1340.82,4887.85
1344.46,5242.99
1348.09,3822.43
1351.72,2644.86
1355.35,1934.58
1358.99,1504.67
1362.62,813.084
1366.25,457.944
1369.89,308.411
1373.52,271.028
1377.15,233.645
1380.78,214.953
1384.42,214.953
1388.05,214.953
1391.68,214.953
1395.32,214.953
1398.95,196.262
1402.58,196.262
1406.21,196.262
1409.85,196.262
1413.48,196.262
1417.11,196.262
1420.75,177.57
1424.38,177.57
1428.01,177.57
1431.64,177.57
1435.28,177.57
1438.91,196.262
1442.54,196.262
1446.18,233.645
1449.81,271.028
1453.44,308.411
1457.07,401.869
1460.71,532.71
1464.34,626.168
1467.97,775.701
1471.61,943.925
1475.24,1018.69
1478.87,1112.15
1482.5,1261.68
1486.14,1392.52
1489.77,1467.29
1493.4,1560.75
1497.04,1598.13
1500.67,1672.9
1504.3,1728.97
1507.93,1579.44
1511.57,1467.29
1515.2,1130.84
1518.83,813.084
1522.47,682.243
1526.1,570.093
1529.73,420.561
1533.37,383.178
1537,327.103
1540.63,364.486
1544.26,420.561
1547.9,495.327
1551.53,588.785
1555.16,794.393
1558.8,1000
1562.43,1224.3
1566.06,1504.67
1569.69,1635.51
1573.33,1747.66
1576.96,1953.27
1580.59,2084.11
1584.23,2102.8
1587.86,2102.8
1591.49,2046.73
1595.12,1971.96
1598.76,1878.5
1602.39,1672.9
1606.02,1467.29
1609.66,1261.68
1613.29,1056.07
1616.92,869.159
1620.55,775.701
1624.19,700.935
1627.82,532.71
1631.45,420.561
1635.09,327.103
1638.72,271.028
1642.35,252.336
1645.98,214.953
1649.62,196.262
1653.25,177.57
1656.88,177.57
1660.52,177.57
1664.15,177.57
1667.78,177.57
1671.41,158.879
1675.05,158.879
1678.68,158.879
1682.31,158.879
1685.95,158.879
1689.58,196.262
1693.21,214.953
1696.85,271.028
1700.48,364.486
1704.11,457.944
1707.74,551.402
1711.38,700.935
1715.01,813.084
1718.64,887.85
1722.28,1074.77
1725.91,1168.22
1729.54,1224.3
1733.17,1317.76
1736.81,1205.61
1740.44,1186.92
1744.07,1112.15
1747.71,887.85
1751.34,626.168
1754.97,420.561
1758.6,308.411
1762.24,252.336
1765.87,196.262
1769.5,158.879
1773.14,140.187
1776.77,140.187
1780.4,140.187
1784.03,140.187
1787.67,158.879
1791.3,177.57
1794.93,214.953
1798.57,271.028
1802.2,420.561
1805.83,626.168
1809.46,738.318
1813.1,887.85
1816.73,1168.22
1820.36,1448.6
1824,1747.66
1827.63,2084.11
1831.26,2420.56
1834.89,2607.48
1838.53,2738.32
1842.16,3037.38
1845.79,3355.14
1849.43,3598.13
1853.06,3953.27
1856.69,4177.57
1860.33,4252.34
1863.96,4457.94
1867.59,4644.86
1871.22,4850.47
1874.86,5000
1878.49,5056.07
1882.12,5130.84
1885.76,5037.38
1889.39,5018.69
1893.02,4925.23
1896.65,4551.4
1900.29,3953.27
1903.92,3280.37
1907.55,2943.93
1911.19,2626.17
1914.82,2084.11
1918.45,1560.75
1922.08,1074.77
1925.72,775.701
1929.35,644.86
1932.98,570.093
1936.62,364.486
1940.25,233.645
1943.88,214.953
1947.51,177.57
1951.15,252.336
1954.78,289.72
1958.41,401.869
1962.05,588.785
1965.68,869.159
1969.31,1149.53
1972.94,1336.45
1976.58,1467.29
1980.21,1635.51
1983.84,1915.89
1987.48,2140.19
1991.11,2364.49
1994.74,2588.79
1998.37,2738.32
2002.01,2794.39
2005.64,2869.16
2009.27,2962.62
2012.91,3037.38
2016.54,3168.22
2020.17,3261.68
2023.8,3299.07
2027.44,3299.07
2031.07,3504.67
2034.7,3411.21
2038.34,3261.68
2041.97,2943.93
2045.6,2383.18
2049.24,2102.8
2052.87,1897.2
2056.5,1336.45
2060.13,869.159
2063.77,682.243
2067.4,588.785
2071.03,383.178
2074.67,233.645
2078.3,233.645
2081.93,214.953
2085.56,196.262
2089.2,177.57
2092.83,177.57
2096.46,196.262
2100.1,196.262
2103.73,196.262
2107.36,196.262
2110.99,196.262
2114.63,196.262
2118.26,196.262
2121.89,196.262
2125.53,196.262
2129.16,196.262
2132.79,196.262
2136.42,196.262
2140.06,233.645
2143.69,252.336
2147.32,252.336
2150.96,252.336
2154.59,252.336
2158.22,252.336
2161.85,271.028
2165.49,271.028
2169.12,252.336
2172.75,308.411
2176.39,308.411
2180.02,327.103
2183.65,345.794
2187.28,383.178
2190.92,383.178
2194.55,383.178
2198.18,401.869
2201.82,401.869
2205.45,401.869
2209.08,401.869
2212.72,401.869
2216.35,420.561
2219.98,420.561
2223.61,420.561
2227.25,420.561
2230.88,457.944
2234.51,345.794
2238.15,289.72
2241.78,289.72
2245.41,252.336
2249.04,233.645
2252.68,214.953
2256.31,214.953
2259.94,214.953
2263.58,214.953
2267.21,214.953
2270.84,214.953
2274.47,214.953
2278.11,233.645
2281.74,233.645
2285.37,214.953
2289.01,252.336
2292.64,252.336
2296.27,252.336
2299.9,252.336
2303.54,252.336
2307.17,252.336
2310.8,252.336
2314.44,252.336
2318.07,252.336
2321.7,252.336
