,GP550R
RamanShit,Intensity
258.762,13.834
261.817,13.834
264.871,13.834
267.926,13.834
270.981,13.834
274.035,13.834
277.09,13.834
280.145,13.834
283.199,13.834
286.254,49.4071
289.309,120.553
292.363,227.273
295.418,262.846
298.473,298.419
301.527,298.419
304.582,262.846
307.637,262.846
310.691,227.273
313.746,156.126
316.801,120.553
319.855,120.553
322.91,120.553
325.965,120.553
329.019,156.126
332.074,156.126
335.129,156.126
338.183,156.126
341.238,120.553
344.293,84.9802
347.347,49.4071
350.402,49.4071
353.457,49.4071
356.511,49.4071
359.566,49.4071
362.621,49.4071
365.675,49.4071
368.73,84.9802
371.785,84.9802
374.839,84.9802
377.894,84.9802
380.949,120.553
384.003,120.553
387.058,120.553
390.113,84.9802
393.167,84.9802
396.222,49.4071
399.277,49.4071
402.331,13.834
405.386,13.834
408.441,13.834
411.495,13.834
414.55,13.834
417.605,49.4071
420.659,84.9802
423.714,84.9802
426.768,120.553
429.823,120.553
432.878,84.9802
435.932,84.9802
438.987,49.4071
442.042,13.834
445.096,13.834
448.151,13.834
451.206,49.4071
454.26,84.9802
457.315,156.126
460.37,262.846
463.424,440.711
466.479,654.15
469.534,1009.88
472.588,1614.62
475.643,2539.53
478.698,3428.85
481.752,4140.32
484.807,4958.5
487.862,5741.11
490.916,6167.98
493.971,6701.58
497.026,6167.98
500.08,6096.84
503.135,5883.4
506.19,5492.09
509.244,4887.35
512.299,4424.9
515.354,4318.18
518.408,4282.61
521.463,4033.6
524.518,4638.34
527.572,4424.9
530.627,3571.15
533.682,2930.83
536.736,1970.36
539.791,1258.89
542.846,867.589
545.9,654.15
548.955,511.858
552.01,369.565
555.064,298.419
558.119,191.7
561.174,120.553
564.228,49.4071
567.283,13.834
570.338,13.834
573.392,13.834
576.447,13.834
579.502,13.834
582.556,13.834
585.611,13.834
588.666,13.834
591.72,13.834
594.775,13.834
597.83,13.834
600.884,13.834
603.939,13.834
606.994,13.834
610.048,13.834
613.103,13.834
616.158,13.834
619.212,49.4071
622.267,49.4071
625.322,49.4071
628.376,49.4071
631.431,13.834
634.486,13.834
637.54,13.834
640.595,13.834
643.65,13.834
646.704,13.834
649.759,13.834
652.814,13.834
655.868,49.4071
658.923,49.4071
661.977,49.4071
665.032,49.4071
668.087,84.9802
671.141,84.9802
674.196,84.9802
677.251,84.9802
680.305,49.4071
683.36,49.4071
686.415,49.4071
689.469,49.4071
692.524,13.834
695.579,13.834
698.633,13.834
701.688,13.834
704.743,13.834
707.797,13.834
710.852,49.4071
713.907,49.4071
716.961,49.4071
720.016,49.4071
723.071,49.4071
726.125,49.4071
729.18,49.4071
732.235,49.4071
735.289,49.4071
738.344,49.4071
741.399,49.4071
744.453,49.4071
747.508,49.4071
750.563,49.4071
753.617,49.4071
756.672,49.4071
759.727,49.4071
762.781,49.4071
765.836,49.4071
768.891,49.4071
771.945,49.4071
775,84.9802
778.055,84.9802
781.109,84.9802
784.164,84.9802
787.219,84.9802
790.273,84.9802
793.328,84.9802
796.383,49.4071
799.437,13.834
802.492,13.834
805.547,13.834
808.601,13.834
811.656,13.834
814.711,13.834
817.765,13.834
820.82,13.834
823.875,13.834
826.929,13.834
829.984,13.834
833.039,13.834
836.093,13.834
839.148,13.834
842.203,13.834
845.257,13.834
848.312,13.834
851.367,13.834
854.421,13.834
857.476,13.834
860.531,13.834
863.585,13.834
866.64,13.834
869.695,13.834
872.749,13.834
875.804,13.834
878.859,13.834
881.913,13.834
884.968,13.834
888.023,13.834
891.077,13.834
894.132,13.834
897.186,13.834
900.241,13.834
903.296,13.834
906.35,13.834
909.405,13.834
912.46,13.834
915.514,13.834
918.569,13.834
921.624,13.834
924.678,13.834
927.733,13.834
930.788,13.834
933.842,13.834
936.897,13.834
939.952,13.834
943.006,49.4071
946.061,49.4071
949.116,49.4071
952.17,49.4071
955.225,84.9802
958.28,84.9802
961.334,84.9802
964.389,84.9802
967.444,84.9802
970.498,84.9802
973.553,49.4071
976.608,49.4071
979.662,49.4071
982.717,49.4071
985.772,13.834
988.826,13.834
991.881,13.834
994.936,13.834
997.99,13.834
1001.05,49.4071
1004.1,49.4071
1007.15,49.4071
1010.21,49.4071
1013.26,49.4071
1016.32,49.4071
1019.37,49.4071
1022.43,49.4071
1025.48,49.4071
1028.54,49.4071
1031.59,84.9802
1034.65,84.9802
1037.7,120.553
1040.76,120.553
1043.81,120.553
1046.86,120.553
1049.92,156.126
1052.97,156.126
1056.03,156.126
1059.08,120.553
1062.14,120.553
1065.19,84.9802
1068.25,84.9802
1071.3,49.4071
1074.36,13.834
1077.41,13.834
1080.47,13.834
1083.52,13.834
1086.58,13.834
1089.63,13.834
1092.68,13.834
1095.74,13.834
1098.79,13.834
1101.85,13.834
1104.9,13.834
1107.96,13.834
1111.01,49.4071
1114.07,49.4071
1117.12,49.4071
1120.18,49.4071
1123.23,49.4071
1126.29,49.4071
1129.34,49.4071
1132.4,49.4071
1135.45,49.4071
1138.5,49.4071
1141.56,49.4071
1144.61,49.4071
1147.67,49.4071
1150.72,13.834
1153.78,13.834
1156.83,13.834
1159.89,13.834
1162.94,13.834
1166,49.4071
1169.05,49.4071
1172.11,84.9802
1175.16,84.9802
1178.22,84.9802
1181.27,49.4071
1184.32,49.4071
1187.38,49.4071
1190.43,13.834
1193.49,-21.7391
1196.54,-21.7391
1199.6,-21.7391
1202.65,-21.7391
1205.71,-21.7391
1208.76,-21.7391
1211.82,-21.7391
1214.87,-21.7391
1217.93,-21.7391
1220.98,-21.7391
1224.04,-21.7391
1227.09,-21.7391
1230.14,-21.7391
1233.2,-21.7391
1236.25,-21.7391
1239.31,-21.7391
1242.36,-21.7391
1245.42,-21.7391
1248.47,-21.7391
1251.53,-21.7391
1254.58,-21.7391
1257.64,-21.7391
1260.69,-21.7391
1263.75,-21.7391
1266.8,-21.7391
1269.86,-21.7391
1272.91,-21.7391
1275.96,-21.7391
1279.02,-21.7391
1282.07,-21.7391
1285.13,-21.7391
1288.18,-21.7391
1291.24,-21.7391
1294.29,-21.7391
1297.35,-21.7391
1300.4,-21.7391
1303.46,-21.7391
1306.51,-21.7391
1309.57,-21.7391
1312.62,-21.7391
1315.68,-21.7391
1318.73,-21.7391
1321.78,-21.7391
1324.84,-21.7391
1327.89,-21.7391
1330.95,-21.7391
1334,-21.7391
1337.06,-21.7391
1340.11,-21.7391
1343.17,-21.7391
1346.22,-21.7391
1349.28,-21.7391
1352.33,-21.7391
1355.39,-21.7391
1358.44,-21.7391
1361.5,-21.7391
1364.55,-21.7391
1367.6,-21.7391
1370.66,-21.7391
1373.71,-21.7391
1376.77,-21.7391
1379.82,-21.7391
1382.88,-21.7391
1385.93,-21.7391
1388.99,-21.7391
1392.04,-21.7391
1395.1,-21.7391
1398.15,-21.7391
1401.21,-21.7391
1404.26,-21.7391
1407.32,-21.7391
1410.37,-21.7391
1413.42,-21.7391
1416.48,-21.7391
1419.53,-21.7391
1422.59,-21.7391
1425.64,-21.7391
1428.7,-21.7391
1431.75,-21.7391
1434.81,-21.7391
1437.86,-21.7391
1440.92,-21.7391
1443.97,-21.7391
1447.03,-21.7391
1450.08,-21.7391
1453.14,-21.7391
1456.19,-21.7391
1459.24,-21.7391
1462.3,-21.7391
1465.35,-21.7391
1468.41,-21.7391
1471.46,-21.7391
1474.52,-21.7391
1477.57,-21.7391
1480.63,-21.7391
1483.68,-21.7391
1486.74,-21.7391
1489.79,-21.7391
1492.85,-21.7391
1495.9,-21.7391
1498.95,-21.7391
1502.01,-21.7391
1505.06,-21.7391
1508.12,-21.7391
1511.17,-21.7391
1514.23,-21.7391
1517.28,-21.7391
1520.34,-21.7391
1523.39,-21.7391
1526.45,-21.7391
1529.5,-21.7391
1532.56,-21.7391
1535.61,-21.7391
1538.67,-21.7391
1541.72,-21.7391
1544.77,-21.7391
1547.83,-21.7391
1550.88,-21.7391
1553.94,-21.7391
1556.99,-21.7391
1560.05,-21.7391
1563.1,-21.7391
1566.16,-21.7391
1569.21,-21.7391
1572.27,-21.7391
1575.32,-21.7391
1578.38,-21.7391
1581.43,-21.7391
1584.49,-21.7391
1587.54,-21.7391
1590.59,-21.7391
1593.65,-21.7391
1596.7,-21.7391
1599.76,-21.7391
1602.81,-21.7391
1605.87,-21.7391
1608.92,-21.7391
1611.98,-21.7391
1615.03,-21.7391
1618.09,-21.7391
1621.14,-21.7391
1624.2,-21.7391
1627.25,-21.7391
1630.31,-21.7391
1633.36,-21.7391
1636.41,-21.7391
1639.47,-21.7391
1642.52,-21.7391
1645.58,-21.7391
1648.63,-21.7391
1651.69,-21.7391
1654.74,-21.7391
1657.8,-21.7391
1660.85,-21.7391
1663.91,-21.7391
1666.96,-21.7391
1670.02,-21.7391
1673.07,-21.7391
1676.13,-21.7391
1679.18,-21.7391
1682.23,-21.7391
1685.29,-21.7391
1688.34,-21.7391
1691.4,-21.7391
1694.45,-21.7391
1697.51,-21.7391
1700.56,-21.7391
1703.62,-21.7391
1706.67,-21.7391
1709.73,-21.7391
1712.78,-21.7391
1715.84,-21.7391
1718.89,-21.7391
1721.95,-21.7391
1725,-21.7391
1728.05,-21.7391
1731.11,-21.7391
1734.16,-21.7391
1737.22,-21.7391
1740.27,-21.7391
1743.33,-21.7391
1746.38,-21.7391
1749.44,-21.7391
1752.49,-21.7391
1755.55,-21.7391
1758.6,-21.7391
1761.66,-21.7391
1764.71,-21.7391
1767.77,-21.7391
1770.82,-21.7391
1773.87,-21.7391
1776.93,-21.7391
1779.98,-21.7391
1783.04,-21.7391
1786.09,-21.7391
1789.15,-21.7391
1792.2,-21.7391
1795.26,-21.7391
1798.31,-21.7391
1801.37,-21.7391
1804.42,-21.7391
1807.48,-21.7391
1810.53,-21.7391
1813.59,-21.7391
1816.64,-21.7391
1819.69,-21.7391
1822.75,-21.7391
1825.8,-21.7391
1828.86,-21.7391
1831.91,-21.7391
1834.97,-21.7391
1838.02,-21.7391
1841.08,-21.7391
1844.13,-21.7391
1847.19,-21.7391
1850.24,-21.7391
1853.3,-21.7391
1856.35,-21.7391
1859.41,-21.7391
1862.46,-21.7391
1865.51,-21.7391
1868.57,-21.7391
1871.62,-21.7391
1874.68,-21.7391
1877.73,-21.7391
1880.79,-21.7391
1883.84,-21.7391
1886.9,-21.7391
1889.95,-21.7391
1893.01,-21.7391
1896.06,-21.7391
1899.12,-21.7391
1902.17,-21.7391
1905.23,-21.7391
1908.28,-21.7391
1911.33,-21.7391
1914.39,-21.7391
1917.44,-21.7391
1920.5,-21.7391
1923.55,-21.7391
1926.61,-21.7391
1929.66,-21.7391
1932.72,-21.7391
1935.77,-21.7391
1938.83,-21.7391
1941.88,-21.7391
1944.94,-21.7391
1947.99,-21.7391
1951.05,-21.7391
1954.1,-21.7391
1957.15,-21.7391
1960.21,-21.7391
1963.26,-21.7391
1966.32,-21.7391
1969.37,-21.7391
1972.43,-21.7391
1975.48,-21.7391
1978.54,-21.7391
1981.59,-21.7391
1984.65,-21.7391
1987.7,-21.7391
1990.76,-21.7391
1993.81,-21.7391
1996.86,-21.7391
1999.92,-21.7391
2002.97,-21.7391
2006.03,-21.7391
2009.08,-21.7391
2012.14,-21.7391
2015.19,-21.7391
2018.25,-21.7391
2021.3,-21.7391
2024.36,-21.7391
2027.41,-21.7391
2030.47,-21.7391
2033.52,-21.7391
2036.58,-21.7391
2039.63,-21.7391
2042.68,-21.7391
2045.74,-21.7391
2048.79,-21.7391
2051.85,-21.7391
2054.9,-21.7391
2057.96,-21.7391
2061.01,-21.7391
2064.07,-21.7391
2067.12,-21.7391
2070.18,-21.7391
2073.23,-21.7391
2076.29,-21.7391
2079.34,-21.7391
2082.4,-21.7391
2085.45,-21.7391
2088.5,-21.7391
2091.56,-21.7391
2094.61,-21.7391
2097.67,-21.7391
2100.72,-21.7391
2103.78,-21.7391
2106.83,-21.7391
2109.89,-21.7391
2112.94,-21.7391
2116,-21.7391
2119.05,-21.7391
2122.11,-21.7391
2125.16,-21.7391
2128.22,-21.7391
2131.27,-21.7391
2134.32,-21.7391
2137.38,-21.7391
2140.43,-21.7391
2143.49,-21.7391
2146.54,-21.7391
2149.6,-21.7391
2152.65,-21.7391
2155.71,-21.7391
2158.76,-21.7391
2161.82,-21.7391
2164.87,-21.7391
2167.93,-21.7391
2170.98,-21.7391
2174.04,-21.7391
2177.09,-21.7391
2180.14,-21.7391
2183.2,-21.7391
2186.25,-21.7391
2189.31,-21.7391
2192.36,-21.7391
2195.42,-21.7391
2198.47,-21.7391
2201.53,-21.7391
2204.58,-21.7391
2207.64,-21.7391
2210.69,-21.7391
2213.75,-21.7391
2216.8,-21.7391
2219.86,-21.7391
2222.91,-21.7391
2225.96,-21.7391
2229.02,-21.7391
2232.07,-21.7391
2235.13,-21.7391
2238.18,-21.7391
2241.24,-21.7391
2244.29,-21.7391
2247.35,-21.7391
2250.4,-21.7391
2253.46,-21.7391
2256.51,-21.7391
2259.57,-21.7391
2262.62,-21.7391
2265.68,-21.7391
2268.73,-21.7391
2271.78,-21.7391
2274.84,-21.7391
2277.89,-21.7391
2280.95,-21.7391
2284,-21.7391
2287.06,-21.7391
2290.11,-21.7391
