,GP550R
RamanShit,Intensity
248.096,8094.2
251.242,11239.1
254.387,11036.2
257.533,8905.8
260.679,8297.1
263.825,7586.96
266.97,7282.61
270.116,6876.81
273.262,6166.67
276.407,5253.62
279.553,3934.78
282.699,2920.29
285.844,2108.7
288.99,1601.45
292.136,1398.55
295.281,1297.1
298.427,1094.2
301.573,1195.65
304.719,1297.1
307.864,1601.45
311.01,2007.25
314.156,2210.14
317.301,2615.94
320.447,2818.84
323.593,3021.74
326.738,3326.09
329.884,3528.99
333.03,3630.43
336.175,3731.88
339.321,4239.13
342.467,4543.48
345.613,5152.17
348.758,6268.12
351.904,7079.71
355.05,8195.65
358.195,12253.6
361.341,15297.1
364.487,15601.4
367.632,15702.9
370.778,23717.4
373.924,21587
377.07,15500
380.215,13166.7
383.361,10731.9
386.507,9514.49
389.652,7992.75
392.798,7384.06
395.944,7282.61
399.089,7181.16
402.235,7181.16
405.381,7181.16
408.526,6369.57
411.672,5050.72
414.818,3833.33
417.964,2818.84
421.109,2311.59
424.255,1500
427.401,992.754
430.546,789.855
433.692,586.957
436.838,384.058
439.983,384.058
443.129,384.058
446.275,181.159
449.421,181.159
452.566,181.159
455.712,181.159
458.858,181.159
462.003,282.609
465.149,384.058
468.295,384.058
471.44,485.507
474.586,586.957
477.732,688.406
480.877,891.304
484.023,1094.2
487.169,1297.1
490.315,1500
493.46,1804.35
496.606,2108.7
499.752,2311.59
502.897,2311.59
506.043,2413.04
509.189,2413.04
512.334,2413.04
515.48,2108.7
518.626,1804.35
521.772,1601.45
524.917,1500
528.063,1500
531.209,1297.1
534.354,1195.65
537.5,1094.2
540.646,992.754
543.791,789.855
546.937,688.406
550.083,586.957
553.228,485.507
556.374,384.058
559.52,384.058
562.666,181.159
565.811,181.159
568.957,181.159
572.103,181.159
575.248,181.159
578.394,181.159
581.54,181.159
584.685,181.159
587.831,181.159
590.977,181.159
594.123,181.159
597.268,181.159
600.414,181.159
603.56,282.609
606.705,384.058
609.851,384.058
612.997,384.058
616.142,688.406
619.288,891.304
622.434,1195.65
625.579,1702.9
628.725,2007.25
631.871,2108.7
635.017,2108.7
638.162,2108.7
641.308,2108.7
644.454,1905.8
647.599,1601.45
650.745,1398.55
653.891,1297.1
657.036,992.754
660.182,789.855
663.328,586.957
666.474,586.957
669.619,586.957
672.765,485.507
675.911,586.957
679.056,789.855
682.202,1398.55
685.348,1905.8
688.493,2311.59
691.639,3731.88
694.785,5557.97
697.93,7485.51
701.076,8398.55
704.222,8500
707.368,9615.94
710.513,8297.1
713.659,7384.06
716.805,6471.01
719.95,5659.42
723.096,4137.68
726.242,3528.99
729.387,3427.54
732.533,3326.09
735.679,3224.64
738.825,3326.09
741.97,3427.54
745.116,3528.99
748.262,3021.74
751.407,2717.39
754.553,2210.14
757.699,1905.8
760.844,1601.45
763.99,1094.2
767.136,789.855
770.281,688.406
773.427,688.406
776.573,586.957
779.719,384.058
782.864,282.609
786.01,181.159
789.156,181.159
792.301,181.159
795.447,79.7101
798.593,79.7101
801.738,79.7101
804.884,79.7101
808.03,79.7101
811.175,79.7101
814.321,79.7101
817.467,79.7101
820.613,79.7101
823.758,181.159
826.904,181.159
830.05,181.159
833.195,181.159
836.341,181.159
839.487,181.159
842.632,181.159
845.778,181.159
848.924,181.159
852.07,181.159
855.215,282.609
858.361,282.609
861.507,181.159
864.652,181.159
867.798,181.159
870.944,181.159
874.089,181.159
877.235,181.159
880.381,181.159
883.526,181.159
886.672,79.7101
889.818,79.7101
892.964,79.7101
896.109,79.7101
899.255,79.7101
902.401,79.7101
905.546,79.7101
908.692,79.7101
911.838,181.159
914.983,181.159
918.129,181.159
921.275,181.159
924.421,282.609
927.566,384.058
930.712,384.058
933.858,384.058
937.003,586.957
940.149,688.406
943.295,688.406
946.44,891.304
949.586,992.754
952.732,1094.2
955.877,1094.2
959.023,1195.65
962.169,1398.55
965.315,1398.55
968.46,1398.55
971.606,1398.55
974.752,1398.55
977.897,1398.55
981.043,1398.55
984.189,1398.55
987.334,1398.55
990.48,1398.55
993.626,1398.55
996.772,1398.55
999.917,1398.55
1003.06,1398.55
1006.21,1398.55
1009.35,1398.55
1012.5,1500
1015.65,1500
1018.79,1500
1021.94,1500
1025.08,1500
1028.23,1500
1031.37,1601.45
1034.52,1905.8
1037.67,2108.7
1040.81,2311.59
1043.96,2514.49
1047.1,2615.94
1050.25,2717.39
1053.39,2818.84
1056.54,2818.84
1059.69,2818.84
1062.83,2818.84
1065.98,2818.84
1069.12,2818.84
1072.27,2717.39
1075.41,2717.39
1078.56,2717.39
1081.71,2717.39
1084.85,2717.39
1088,2717.39
1091.14,2514.49
1094.29,2413.04
1097.43,2007.25
1100.58,1804.35
1103.73,1702.9
1106.87,1601.45
1110.02,1500
1113.16,1398.55
1116.31,1398.55
1119.45,1297.1
1122.6,1195.65
1125.75,1094.2
1128.89,992.754
1132.04,789.855
1135.18,688.406
1138.33,586.957
1141.47,485.507
1144.62,282.609
1147.76,282.609
1150.91,181.159
1154.06,181.159
1157.2,79.7101
1160.35,79.7101
1163.49,79.7101
1166.64,79.7101
1169.78,79.7101
1172.93,79.7101
1176.08,79.7101
1179.22,79.7101
1182.37,79.7101
1185.51,79.7101
1188.66,79.7101
1191.8,79.7101
1194.95,79.7101
1198.1,79.7101
1201.24,79.7101
1204.39,79.7101
1207.53,79.7101
1210.68,79.7101
1213.82,79.7101
1216.97,79.7101
1220.12,79.7101
1223.26,181.159
1226.41,181.159
1229.55,181.159
1232.7,181.159
1235.84,181.159
1238.99,181.159
1242.14,181.159
1245.28,181.159
1248.43,181.159
1251.57,181.159
1254.72,181.159
1257.86,181.159
1261.01,181.159
1264.16,181.159
1267.3,181.159
1270.45,181.159
1273.59,181.159
1276.74,181.159
1279.88,181.159
1283.03,181.159
1286.18,181.159
1289.32,181.159
1292.47,181.159
1295.61,181.159
1298.76,181.159
1301.9,181.159
1305.05,181.159
1308.2,181.159
1311.34,181.159
1314.49,181.159
1317.63,181.159
1320.78,181.159
1323.92,181.159
1327.07,181.159
1330.22,181.159
1333.36,181.159
1336.51,181.159
1339.65,181.159
1342.8,181.159
1345.94,181.159
1349.09,181.159
1352.24,181.159
1355.38,181.159
1358.53,181.159
1361.67,181.159
1364.82,181.159
1367.96,181.159
1371.11,181.159
1374.25,181.159
1377.4,181.159
1380.55,181.159
1383.69,181.159
1386.84,181.159
1389.98,181.159
1393.13,181.159
1396.27,181.159
1399.42,181.159
1402.57,181.159
1405.71,181.159
1408.86,181.159
1412,181.159
1415.15,181.159
1418.29,181.159
1421.44,181.159
1424.59,181.159
1427.73,181.159
1430.88,181.159
1434.02,181.159
1437.17,181.159
1440.31,181.159
1443.46,181.159
1446.61,181.159
1449.75,181.159
1452.9,181.159
1456.04,181.159
1459.19,181.159
1462.33,181.159
1465.48,181.159
1468.63,181.159
1471.77,181.159
1474.92,181.159
1478.06,181.159
1481.21,181.159
1484.35,181.159
1487.5,181.159
1490.65,181.159
1493.79,181.159
1496.94,181.159
1500.08,181.159
1503.23,181.159
1506.37,181.159
1509.52,181.159
1512.67,181.159
1515.81,181.159
1518.96,181.159
1522.1,181.159
1525.25,181.159
1528.39,181.159
1531.54,181.159
1534.69,181.159
1537.83,181.159
1540.98,181.159
1544.12,181.159
1547.27,181.159
1550.41,181.159
1553.56,181.159
1556.71,181.159
1559.85,181.159
1563,181.159
1566.14,181.159
1569.29,181.159
1572.43,181.159
1575.58,181.159
1578.73,181.159
1581.87,181.159
1585.02,79.7101
1588.16,79.7101
1591.31,79.7101
1594.45,79.7101
1597.6,79.7101
1600.75,79.7101
1603.89,79.7101
1607.04,79.7101
1610.18,79.7101
1613.33,79.7101
1616.47,79.7101
1619.62,79.7101
1622.76,79.7101
1625.91,79.7101
1629.06,79.7101
1632.2,79.7101
1635.35,79.7101
1638.49,79.7101
1641.64,79.7101
1644.78,79.7101
1647.93,79.7101
1651.08,79.7101
1654.22,79.7101
1657.37,79.7101
1660.51,79.7101
1663.66,79.7101
1666.8,79.7101
1669.95,79.7101
1673.1,181.159
1676.24,181.159
1679.39,181.159
1682.53,181.159
1685.68,181.159
1688.82,181.159
1691.97,181.159
1695.12,181.159
1698.26,181.159
1701.41,181.159
1704.55,181.159
1707.7,181.159
1710.84,181.159
1713.99,181.159
1717.14,181.159
1720.28,181.159
1723.43,181.159
1726.57,181.159
1729.72,181.159
1732.86,181.159
1736.01,181.159
1739.16,181.159
1742.3,181.159
1745.45,181.159
1748.59,79.7101
1751.74,79.7101
1754.88,79.7101
1758.03,79.7101
1761.18,79.7101
1764.32,79.7101
1767.47,79.7101
1770.61,79.7101
1773.76,79.7101
1776.9,79.7101
1780.05,79.7101
1783.2,79.7101
1786.34,79.7101
1789.49,79.7101
1792.63,79.7101
1795.78,79.7101
1798.92,79.7101
1802.07,79.7101
1805.22,79.7101
1808.36,79.7101
1811.51,79.7101
1814.65,79.7101
1817.8,79.7101
1820.94,79.7101
1824.09,79.7101
1827.24,79.7101
1830.38,79.7101
1833.53,79.7101
1836.67,79.7101
1839.82,79.7101
1842.96,79.7101
1846.11,79.7101
1849.25,79.7101
1852.4,79.7101
1855.55,79.7101
1858.69,79.7101
1861.84,79.7101
1864.98,79.7101
1868.13,79.7101
1871.27,79.7101
1874.42,181.159
1877.57,181.159
1880.71,181.159
1883.86,181.159
1887,181.159
1890.15,181.159
1893.29,181.159
1896.44,181.159
1899.59,181.159
1902.73,181.159
1905.88,181.159
1909.02,181.159
1912.17,181.159
1915.31,181.159
1918.46,181.159
1921.61,79.7101
1924.75,79.7101
1927.9,79.7101
1931.04,79.7101
1934.19,79.7101
1937.33,79.7101
1940.48,79.7101
1943.63,79.7101
1946.77,79.7101
1949.92,79.7101
1953.06,79.7101
1956.21,79.7101
1959.35,181.159
1962.5,181.159
1965.65,181.159
1968.79,181.159
1971.94,181.159
1975.08,181.159
1978.23,181.159
1981.37,181.159
1984.52,181.159
1987.67,181.159
1990.81,181.159
1993.96,181.159
1997.1,181.159
2000.25,181.159
2003.39,181.159
2006.54,181.159
2009.69,181.159
2012.83,181.159
2015.98,181.159
2019.12,181.159
2022.27,181.159
2025.41,181.159
2028.56,181.159
2031.71,181.159
2034.85,181.159
2038,181.159
2041.14,181.159
2044.29,181.159
2047.43,181.159
2050.58,181.159
2053.73,181.159
2056.87,181.159
2060.02,181.159
2063.16,181.159
2066.31,181.159
2069.45,79.7101
2072.6,79.7101
2075.75,79.7101
2078.89,79.7101
2082.04,79.7101
2085.18,79.7101
2088.33,79.7101
2091.47,79.7101
2094.62,79.7101
2097.76,79.7101
2100.91,79.7101
2104.06,79.7101
2107.2,79.7101
2110.35,181.159
2113.49,181.159
2116.64,181.159
2119.78,79.7101
2122.93,79.7101
2126.08,79.7101
2129.22,79.7101
2132.37,79.7101
2135.51,79.7101
2138.66,79.7101
2141.8,79.7101
2144.95,79.7101
2148.1,79.7101
2151.24,79.7101
2154.39,79.7101
2157.53,79.7101
2160.68,79.7101
2163.82,79.7101
2166.97,79.7101
2170.12,79.7101
2173.26,79.7101
2176.41,79.7101
2179.55,79.7101
2182.7,79.7101
2185.84,79.7101
2188.99,79.7101
2192.14,79.7101
2195.28,79.7101
2198.43,79.7101
2201.57,79.7101
2204.72,79.7101
2207.86,79.7101
2211.01,79.7101
2214.16,79.7101
2217.3,181.159
2220.45,181.159
2223.59,181.159
2226.74,181.159
2229.88,181.159
2233.03,181.159
2236.18,181.159
2239.32,79.7101
2242.47,79.7101
2245.61,79.7101
2248.76,79.7101
2251.9,79.7101
2255.05,79.7101
2258.2,79.7101
2261.34,79.7101
2264.49,79.7101
2267.63,79.7101
2270.78,79.7101
2273.92,79.7101
2277.07,79.7101
2280.22,79.7101
2283.36,79.7101
2286.51,79.7101
2289.65,79.7101
2292.8,79.7101
2295.94,79.7101
2299.09,79.7101
2302.24,79.7101
2305.38,79.7101
2308.53,79.7101
2311.67,79.7101
2314.82,79.7101
2317.96,79.7101
2321.11,79.7101
2324.25,79.7101
2327.4,79.7101
2330.55,181.159
2333.69,181.159
2336.84,181.159
