,GP550R
RamanShit,Intensity
267.883,1266.45
271.263,1266.45
274.644,1726.97
278.025,1726.97
281.406,1957.24
284.786,2417.76
288.167,2878.29
291.548,3108.55
294.929,4490.13
298.31,4720.39
301.69,2878.29
305.071,2878.29
308.452,2648.03
311.833,2417.76
315.214,2417.76
318.594,2417.76
321.975,2417.76
325.356,2187.5
328.737,2187.5
332.117,2187.5
335.498,2187.5
338.879,1726.97
342.26,1726.97
345.641,1726.97
349.021,1726.97
352.402,1726.97
355.783,1726.97
359.164,1726.97
362.544,1726.97
365.925,1726.97
369.306,1726.97
372.687,1726.97
376.068,1726.97
379.448,1726.97
382.829,1496.71
386.21,1496.71
389.591,1496.71
392.972,1496.71
396.352,1496.71
399.733,1957.24
403.114,2187.5
406.495,2187.5
409.875,2187.5
413.256,2417.76
416.637,2417.76
420.018,2648.03
423.399,2648.03
426.779,2878.29
430.16,2878.29
433.541,2648.03
436.922,2417.76
440.302,2187.5
443.683,1957.24
447.064,1726.97
450.445,1726.97
453.826,1496.71
457.206,1496.71
460.587,1266.45
463.968,1266.45
467.349,1266.45
470.73,1266.45
474.11,1266.45
477.491,1266.45
480.872,1266.45
484.253,1266.45
487.633,1266.45
491.014,1266.45
494.395,1266.45
497.776,805.921
501.157,1266.45
504.537,1266.45
507.918,1266.45
511.299,1266.45
514.68,1266.45
518.06,1266.45
521.441,1266.45
524.822,1266.45
528.203,1726.97
531.584,1726.97
534.964,1726.97
538.345,1957.24
541.726,1726.97
545.107,1726.97
548.488,1726.97
551.868,1726.97
555.249,1726.97
558.63,1726.97
562.011,1957.24
565.391,2187.5
568.772,2648.03
572.153,3338.82
575.534,3799.34
578.915,4029.61
582.295,4259.87
585.676,4259.87
589.057,4259.87
592.438,4259.87
595.819,4259.87
599.199,4490.13
602.58,4950.66
605.961,4259.87
609.342,3799.34
612.722,2878.29
616.103,2648.03
619.484,2187.5
622.865,1957.24
626.246,1726.97
629.626,1726.97
633.007,1726.97
636.388,1726.97
639.769,1726.97
643.149,1266.45
646.53,1266.45
649.911,1266.45
653.292,1266.45
656.673,1266.45
660.053,1266.45
663.434,1266.45
666.815,1266.45
670.196,1266.45
673.577,1266.45
676.957,1266.45
680.338,1266.45
683.719,1266.45
687.1,1266.45
690.48,1266.45
693.861,1266.45
697.242,1266.45
700.623,575.658
704.004,1266.45
707.384,1266.45
710.765,1266.45
714.146,1266.45
717.527,1266.45
720.907,1266.45
724.288,1266.45
727.669,1266.45
731.05,1266.45
734.431,1266.45
737.811,1266.45
741.192,1266.45
744.573,1266.45
747.954,1266.45
751.335,1266.45
754.715,1266.45
758.096,1266.45
761.477,1266.45
764.858,1266.45
768.238,1266.45
771.619,1266.45
775,1266.45
778.381,1266.45
781.762,1266.45
785.142,1266.45
788.523,1266.45
791.904,1957.24
795.285,2417.76
798.665,3108.55
802.046,4259.87
805.427,7713.82
808.808,10707.2
812.189,13700.7
815.569,16463.8
818.95,33273
822.331,37417.8
825.712,25904.6
829.093,25213.8
832.473,26134.9
835.854,26365.1
839.235,26595.4
842.616,26825.7
845.996,27055.9
849.377,61365.1
852.758,56069.1
856.139,27055.9
859.52,21069.1
862.9,14852
866.281,12088.8
869.662,9555.92
873.043,9325.66
876.423,8634.87
879.804,7253.29
883.185,4720.39
886.566,2878.29
889.947,2417.76
893.327,1726.97
896.708,1726.97
900.089,805.921
903.47,1957.24
906.851,2187.5
910.231,2417.76
913.612,2417.76
916.993,2878.29
920.374,2187.5
923.754,2187.5
927.135,1957.24
930.516,1496.71
933.897,1957.24
937.278,2417.76
940.658,2878.29
944.039,3569.08
947.42,4720.39
950.801,6101.97
954.181,6101.97
957.562,7483.55
960.943,6101.97
964.324,5871.71
967.705,4720.39
971.085,3108.55
974.466,2417.76
977.847,2417.76
981.228,1957.24
984.609,1726.97
987.989,1726.97
991.37,1726.97
994.751,1726.97
998.132,805.921
1001.51,1266.45
1004.89,1266.45
1008.27,1266.45
1011.65,1266.45
1015.04,1266.45
1018.42,1266.45
1021.8,1266.45
1025.18,1266.45
1028.56,1266.45
1031.94,1266.45
1035.32,1266.45
1038.7,1266.45
1042.08,1266.45
1045.46,1266.45
1048.84,1266.45
1052.22,1266.45
1055.6,1266.45
1058.99,1266.45
1062.37,1266.45
1065.75,1266.45
1069.13,1266.45
1072.51,1266.45
1075.89,1266.45
1079.27,1266.45
1082.65,1266.45
1086.03,1266.45
1089.41,1266.45
1092.79,1266.45
1096.17,1266.45
1099.56,805.921
1102.94,1266.45
1106.32,1266.45
1109.7,1266.45
1113.08,1496.71
1116.46,1496.71
1119.84,1496.71
1123.22,1496.71
1126.6,1496.71
1129.98,1496.71
1133.36,1496.71
1136.74,1496.71
1140.12,1496.71
1143.51,1496.71
1146.89,1726.97
1150.27,1726.97
1153.65,1726.97
1157.03,1726.97
1160.41,1726.97
1163.79,1726.97
1167.17,1726.97
1170.55,1726.97
1173.93,1726.97
1177.31,1496.71
1180.69,1496.71
1184.07,1496.71
1187.46,1496.71
1190.84,1496.71
1194.22,1496.71
1197.6,1036.18
1200.98,1726.97
1204.36,1726.97
1207.74,1726.97
1211.12,1726.97
1214.5,1726.97
1217.88,1726.97
1221.26,1726.97
1224.64,1726.97
1228.02,1726.97
1231.41,1726.97
1234.79,1726.97
1238.17,1726.97
1241.55,1726.97
1244.93,1266.45
1248.31,1266.45
1251.69,1266.45
1255.07,1266.45
1258.45,1266.45
1261.83,1266.45
1265.21,1266.45
1268.59,1266.45
1271.98,1266.45
1275.36,1266.45
1278.74,1266.45
1282.12,1266.45
1285.5,1266.45
1288.88,1496.71
1292.26,1496.71
1295.64,1496.71
1299.02,1496.71
1302.4,805.921
1305.78,1496.71
1309.16,1496.71
1312.54,1726.97
1315.93,1726.97
1319.31,1726.97
1322.69,1726.97
1326.07,1726.97
1329.45,1726.97
1332.83,1726.97
1336.21,1726.97
1339.59,1726.97
1342.97,1726.97
1346.35,1726.97
1349.73,1726.97
1353.11,1726.97
1356.49,1726.97
1359.88,1726.97
1363.26,1726.97
1366.64,1726.97
1370.02,1726.97
1373.4,1726.97
1376.78,1726.97
1380.16,1726.97
1383.54,1726.97
1386.92,1726.97
1390.3,1726.97
1393.68,1496.71
1397.06,1496.71
1400.44,805.921
1403.83,1496.71
1407.21,1496.71
1410.59,1266.45
1413.97,1266.45
1417.35,1266.45
1420.73,1266.45
1424.11,1266.45
1427.49,1266.45
1430.87,1266.45
1434.25,1496.71
1437.63,1726.97
1441.01,1726.97
1444.4,1726.97
1447.78,1726.97
1451.16,1726.97
1454.54,1726.97
1457.92,1726.97
1461.3,1726.97
1464.68,1726.97
1468.06,1726.97
1471.44,1726.97
1474.82,1726.97
1478.2,1726.97
1481.58,1726.97
1484.96,1726.97
1488.35,1726.97
1491.73,1496.71
1495.11,1726.97
1498.49,1726.97
1501.87,1726.97
1505.25,1726.97
1508.63,1726.97
1512.01,1726.97
1515.39,1726.97
1518.77,1726.97
1522.15,1726.97
1525.53,1726.97
1528.91,1726.97
1532.3,1726.97
1535.68,1496.71
1539.06,1726.97
1542.44,1726.97
1545.82,1726.97
1549.2,1726.97
1552.58,1726.97
1555.96,1726.97
1559.34,1726.97
1562.72,1726.97
1566.1,1496.71
1569.48,1266.45
1572.86,1266.45
1576.25,1266.45
1579.63,1266.45
1583.01,1266.45
1586.39,1266.45
1589.77,1266.45
1593.15,1496.71
1596.53,1496.71
1599.91,805.921
1603.29,1496.71
1606.67,1726.97
1610.05,1726.97
1613.43,1726.97
1616.81,1726.97
1620.2,1726.97
1623.58,1726.97
1626.96,1726.97
1630.34,1726.97
1633.72,1726.97
1637.1,1726.97
1640.48,1726.97
1643.86,1496.71
1647.24,1496.71
1650.62,1496.71
1654,1496.71
1657.38,1496.71
1660.77,1496.71
1664.15,1496.71
1667.53,1266.45
1670.91,1266.45
1674.29,1266.45
1677.67,1266.45
1681.05,1266.45
1684.43,1266.45
1687.81,1266.45
1691.19,1266.45
1694.57,1266.45
1697.95,575.658
1701.33,1266.45
1704.72,1266.45
1708.1,1266.45
1711.48,1266.45
1714.86,1726.97
1718.24,1726.97
1721.62,1726.97
1725,1726.97
1728.38,1726.97
1731.76,1726.97
1735.14,1726.97
1738.52,1496.71
1741.9,1266.45
1745.28,1266.45
1748.67,1266.45
1752.05,1266.45
1755.43,1266.45
1758.81,1266.45
1762.19,1266.45
1765.57,1266.45
1768.95,1496.71
1772.33,1496.71
1775.71,1496.71
1779.09,1496.71
1782.47,1496.71
1785.85,1496.71
1789.23,1496.71
1792.62,1496.71
1796,1496.71
1799.38,805.921
1802.76,1496.71
1806.14,1496.71
1809.52,1496.71
1812.9,1726.97
1816.28,1726.97
1819.66,1726.97
1823.04,1726.97
1826.42,1726.97
1829.8,1726.97
1833.19,1726.97
1836.57,1726.97
1839.95,1726.97
1843.33,1496.71
1846.71,1496.71
1850.09,1496.71
1853.47,1496.71
1856.85,1496.71
1860.23,1726.97
1863.61,1726.97
1866.99,1726.97
1870.37,1726.97
1873.75,1726.97
1877.14,1726.97
1880.52,1726.97
1883.9,1726.97
1887.28,1726.97
1890.66,1726.97
1894.04,1726.97
1897.42,1726.97
1900.8,1266.45
1904.18,1726.97
1907.56,1726.97
1910.94,1726.97
1914.32,1726.97
1917.7,1726.97
1921.09,1496.71
1924.47,1496.71
1927.85,1496.71
1931.23,1496.71
1934.61,1496.71
1937.99,1496.71
1941.37,1496.71
1944.75,1496.71
1948.13,1496.71
1951.51,1496.71
1954.89,1496.71
1958.27,1496.71
1961.65,1496.71
1965.04,1496.71
1968.42,1496.71
1971.8,1496.71
1975.18,1496.71
1978.56,1496.71
1981.94,1496.71
1985.32,1496.71
1988.7,1496.71
1992.08,1496.71
1995.46,1496.71
1998.84,1726.97
2002.22,1726.97
2005.6,1726.97
2008.99,1726.97
2012.37,1726.97
2015.75,1726.97
2019.13,1726.97
2022.51,1726.97
2025.89,1496.71
2029.27,1496.71
2032.65,1496.71
2036.03,1496.71
2039.41,1496.71
2042.79,1266.45
2046.17,1266.45
2049.56,1266.45
2052.94,1496.71
2056.32,1496.71
2059.7,1496.71
2063.08,1726.97
2066.46,1726.97
2069.84,1726.97
2073.22,1726.97
2076.6,1726.97
2079.98,1726.97
2083.36,1726.97
2086.74,1726.97
2090.12,1726.97
2093.51,1726.97
2096.89,1726.97
2100.27,1726.97
2103.65,1726.97
2107.03,1496.71
2110.41,1496.71
2113.79,1496.71
2117.17,1496.71
2120.55,1496.71
2123.93,1496.71
2127.31,1496.71
2130.69,1496.71
2134.07,1496.71
2137.46,1726.97
2140.84,1726.97
2144.22,1726.97
2147.6,1726.97
2150.98,1726.97
2154.36,1726.97
2157.74,1726.97
2161.12,1726.97
2164.5,1726.97
2167.88,1726.97
2171.26,1726.97
2174.64,1726.97
2178.02,1726.97
2181.41,1726.97
2184.79,1726.97
2188.17,1726.97
2191.55,1726.97
2194.93,1726.97
2198.31,1726.97
2201.69,805.921
2205.07,1726.97
2208.45,1726.97
2211.83,1726.97
2215.21,1726.97
2218.59,1726.97
2221.98,1726.97
2225.36,1496.71
2228.74,1496.71
2232.12,1496.71
2235.5,1496.71
2238.88,1496.71
2242.26,1496.71
2245.64,1496.71
2249.02,1496.71
2252.4,1496.71
2255.78,1496.71
2259.16,1496.71
2262.54,1496.71
2265.93,1496.71
2269.31,1496.71
2272.69,1496.71
2276.07,1496.71
