,GP550R
RamanShit,Intensity
261.817,531.496
264.871,1712.6
267.926,4074.8
270.981,8602.36
274.035,15492.1
277.09,25531.5
280.145,26515.7
283.199,19429.1
286.254,16673.2
289.309,12145.7
292.363,8405.51
295.418,5059.06
298.473,2893.7
301.527,2106.3
304.582,1712.6
307.637,2303.15
310.691,2696.85
313.746,4271.65
316.801,4468.5
319.855,2696.85
322.91,2106.3
325.965,728.346
329.019,334.646
332.074,334.646
335.129,531.496
338.183,1122.05
341.238,3287.4
344.293,7224.41
347.347,14114.2
350.402,19822.8
353.457,32618.1
356.511,34980.3
359.566,20610.2
362.621,16870.1
365.675,12736.2
368.73,10767.7
371.785,12736.2
374.839,13720.5
377.894,20216.5
380.949,21003.9
384.003,14114.2
387.058,11161.4
390.113,6240.16
393.167,3484.25
396.222,2106.3
399.277,1318.9
402.331,925.197
405.386,728.346
408.441,334.646
411.495,137.795
414.55,137.795
417.605,-59.0551
420.659,-59.0551
423.714,-59.0551
426.768,-59.0551
429.823,-59.0551
432.878,-59.0551
435.932,-59.0551
438.987,-59.0551
442.042,-59.0551
445.096,-59.0551
448.151,-59.0551
451.206,137.795
454.26,334.646
457.315,925.197
460.37,2303.15
463.424,3090.55
466.479,3287.4
469.534,4074.8
472.588,4665.35
475.643,4862.2
478.698,7224.41
481.752,14311
484.807,19232.3
487.862,28681.1
490.916,19232.3
493.971,18248
497.026,13129.9
500.08,7224.41
503.135,4271.65
506.19,2893.7
509.244,2106.3
512.299,1515.75
515.354,1122.05
518.408,925.197
521.463,925.197
524.518,728.346
527.572,531.496
530.627,334.646
533.682,334.646
536.736,137.795
539.791,137.795
542.846,-59.0551
545.9,-59.0551
548.955,-59.0551
552.01,-59.0551
555.064,-59.0551
558.119,-59.0551
561.174,-59.0551
564.228,-59.0551
567.283,-59.0551
570.338,-59.0551
573.392,-59.0551
576.447,-59.0551
579.502,-59.0551
582.556,-59.0551
585.611,-59.0551
588.666,-59.0551
591.72,137.795
594.775,137.795
597.83,137.795
600.884,137.795
603.939,137.795
606.994,137.795
610.048,137.795
613.103,-59.0551
616.158,-59.0551
619.212,-59.0551
622.267,-59.0551
625.322,-59.0551
628.376,-59.0551
631.431,-59.0551
634.486,137.795
637.54,137.795
640.595,137.795
643.65,137.795
646.704,137.795
649.759,137.795
652.814,137.795
655.868,-59.0551
658.923,-59.0551
661.977,-59.0551
665.032,137.795
668.087,137.795
671.141,334.646
674.196,334.646
677.251,531.496
680.305,531.496
683.36,334.646
686.415,334.646
689.469,137.795
692.524,-59.0551
695.579,-59.0551
698.633,-59.0551
701.688,-59.0551
704.743,-59.0551
707.797,-59.0551
710.852,-59.0551
713.907,-59.0551
716.961,-59.0551
720.016,-59.0551
723.071,-59.0551
726.125,-59.0551
729.18,-59.0551
732.235,-59.0551
735.289,137.795
738.344,137.795
741.399,137.795
744.453,334.646
747.508,334.646
750.563,334.646
753.617,334.646
756.672,334.646
759.727,334.646
762.781,531.496
765.836,728.346
768.891,1122.05
771.945,1318.9
775,1318.9
778.055,1515.75
781.109,1712.6
784.164,1909.45
787.219,2106.3
790.273,3877.95
793.328,3287.4
796.383,2106.3
799.437,1712.6
802.492,728.346
805.547,531.496
808.601,137.795
811.656,137.795
814.711,137.795
817.765,137.795
820.82,137.795
823.875,137.795
826.929,137.795
829.984,137.795
833.039,-59.0551
836.093,-59.0551
839.148,-59.0551
842.203,-59.0551
845.257,-59.0551
848.312,-59.0551
851.367,-59.0551
854.421,-59.0551
857.476,-59.0551
860.531,-59.0551
863.585,-59.0551
866.64,-59.0551
869.695,-59.0551
872.749,-59.0551
875.804,-59.0551
878.859,-59.0551
881.913,-59.0551
884.968,-59.0551
888.023,-59.0551
891.077,-59.0551
894.132,-59.0551
897.186,-59.0551
900.241,-59.0551
903.296,-59.0551
906.35,-59.0551
909.405,-59.0551
912.46,-59.0551
915.514,-59.0551
918.569,-59.0551
921.624,-59.0551
924.678,-59.0551
927.733,-59.0551
930.788,-59.0551
933.842,-59.0551
936.897,-59.0551
939.952,-59.0551
943.006,-59.0551
946.061,-59.0551
949.116,-59.0551
952.17,-59.0551
955.225,-59.0551
958.28,-59.0551
961.334,-59.0551
964.389,-59.0551
967.444,-59.0551
970.498,-59.0551
973.553,-59.0551
976.608,-59.0551
979.662,-59.0551
982.717,-59.0551
985.772,-59.0551
988.826,-59.0551
991.881,-59.0551
994.936,-59.0551
997.99,-59.0551
1001.05,-59.0551
1004.1,-59.0551
1007.15,-59.0551
1010.21,-59.0551
1013.26,-59.0551
1016.32,-59.0551
1019.37,-59.0551
1022.43,-59.0551
1025.48,-59.0551
1028.54,-59.0551
1031.59,-59.0551
1034.65,137.795
1037.7,137.795
1040.76,334.646
1043.81,531.496
1046.86,925.197
1049.92,1122.05
1052.97,1318.9
1056.03,1318.9
1059.08,1122.05
1062.14,1122.05
1065.19,728.346
1068.25,334.646
1071.3,137.795
1074.36,137.795
1077.41,137.795
1080.47,137.795
1083.52,137.795
1086.58,137.795
1089.63,-59.0551
1092.68,-59.0551
1095.74,-59.0551
1098.79,-59.0551
1101.85,137.795
1104.9,137.795
1107.96,334.646
1111.01,334.646
1114.07,531.496
1117.12,925.197
1120.18,1318.9
1123.23,2106.3
1126.29,3681.1
1129.34,4665.35
1132.4,5452.76
1135.45,4665.35
1138.5,4074.8
1141.56,2893.7
1144.61,1909.45
1147.67,1318.9
1150.72,1122.05
1153.78,925.197
1156.83,728.346
1159.89,531.496
1162.94,334.646
1166,334.646
1169.05,137.795
1172.11,137.795
1175.16,137.795
1178.22,137.795
1181.27,137.795
1184.32,137.795
1187.38,334.646
1190.43,137.795
1193.49,137.795
1196.54,137.795
1199.6,-59.0551
1202.65,-59.0551
1205.71,-59.0551
1208.76,-59.0551
1211.82,-59.0551
1214.87,-59.0551
1217.93,-59.0551
1220.98,-59.0551
1224.04,-59.0551
1227.09,-59.0551
1230.14,-59.0551
1233.2,-59.0551
1236.25,-59.0551
1239.31,-59.0551
1242.36,-59.0551
1245.42,-59.0551
1248.47,-59.0551
1251.53,-59.0551
1254.58,-59.0551
1257.64,-59.0551
1260.69,-59.0551
1263.75,-59.0551
1266.8,-59.0551
1269.86,-59.0551
1272.91,-59.0551
1275.96,-59.0551
1279.02,-59.0551
1282.07,-59.0551
1285.13,-59.0551
1288.18,-59.0551
1291.24,-59.0551
1294.29,-59.0551
1297.35,-59.0551
1300.4,-59.0551
1303.46,-59.0551
1306.51,-59.0551
1309.57,-59.0551
1312.62,-59.0551
1315.68,-59.0551
1318.73,-59.0551
1321.78,-59.0551
1324.84,-59.0551
1327.89,-59.0551
1330.95,-59.0551
1334,-59.0551
1337.06,-59.0551
1340.11,-59.0551
1343.17,-59.0551
1346.22,-59.0551
1349.28,-59.0551
1352.33,-59.0551
1355.39,-59.0551
1358.44,-59.0551
1361.5,-59.0551
1364.55,-59.0551
1367.6,-59.0551
1370.66,-59.0551
1373.71,-59.0551
1376.77,-59.0551
1379.82,-59.0551
1382.88,-59.0551
1385.93,137.795
1388.99,137.795
1392.04,137.795
1395.1,137.795
1398.15,-59.0551
1401.21,-59.0551
1404.26,-59.0551
1407.32,-59.0551
1410.37,-59.0551
1413.42,-59.0551
1416.48,-59.0551
1419.53,-59.0551
1422.59,-59.0551
1425.64,-59.0551
1428.7,-59.0551
1431.75,-59.0551
1434.81,-59.0551
1437.86,-59.0551
1440.92,-59.0551
1443.97,-59.0551
1447.03,-59.0551
1450.08,-59.0551
1453.14,-59.0551
1456.19,-59.0551
1459.24,-59.0551
1462.3,-59.0551
1465.35,-59.0551
1468.41,-59.0551
1471.46,-59.0551
1474.52,-59.0551
1477.57,-59.0551
1480.63,-59.0551
1483.68,-59.0551
1486.74,-59.0551
1489.79,-59.0551
1492.85,-59.0551
1495.9,-59.0551
1498.95,-59.0551
1502.01,-59.0551
1505.06,-59.0551
1508.12,-59.0551
1511.17,-59.0551
1514.23,-59.0551
1517.28,-59.0551
1520.34,-59.0551
1523.39,-59.0551
1526.45,-59.0551
1529.5,-59.0551
1532.56,-59.0551
1535.61,-59.0551
1538.67,137.795
1541.72,137.795
1544.77,137.795
1547.83,137.795
1550.88,137.795
1553.94,137.795
1556.99,137.795
1560.05,137.795
1563.1,137.795
1566.16,137.795
1569.21,137.795
1572.27,137.795
1575.32,137.795
1578.38,137.795
1581.43,137.795
1584.49,137.795
1587.54,137.795
1590.59,137.795
1593.65,137.795
1596.7,137.795
1599.76,137.795
1602.81,137.795
1605.87,137.795
1608.92,137.795
1611.98,137.795
1615.03,137.795
1618.09,137.795
1621.14,137.795
1624.2,137.795
1627.25,137.795
1630.31,-59.0551
1633.36,-59.0551
1636.41,-59.0551
1639.47,-59.0551
1642.52,-59.0551
1645.58,-59.0551
1648.63,-59.0551
1651.69,-59.0551
1654.74,-59.0551
1657.8,-59.0551
1660.85,-59.0551
1663.91,-59.0551
1666.96,-59.0551
1670.02,-59.0551
1673.07,137.795
1676.13,137.795
1679.18,137.795
1682.23,137.795
1685.29,137.795
1688.34,137.795
1691.4,137.795
1694.45,137.795
1697.51,137.795
1700.56,137.795
1703.62,137.795
1706.67,137.795
1709.73,137.795
1712.78,137.795
1715.84,-59.0551
1718.89,-59.0551
1721.95,-59.0551
1725,-59.0551
1728.05,-59.0551
1731.11,-59.0551
1734.16,-59.0551
1737.22,-59.0551
1740.27,-59.0551
1743.33,-59.0551
1746.38,-59.0551
1749.44,-59.0551
1752.49,-59.0551
1755.55,-59.0551
1758.6,-59.0551
1761.66,-59.0551
1764.71,-59.0551
1767.77,-59.0551
1770.82,137.795
1773.87,137.795
1776.93,137.795
1779.98,137.795
1783.04,137.795
1786.09,137.795
1789.15,-59.0551
1792.2,-59.0551
1795.26,-59.0551
1798.31,-59.0551
1801.37,-59.0551
1804.42,-59.0551
1807.48,-59.0551
1810.53,-59.0551
1813.59,-59.0551
1816.64,-59.0551
1819.69,-59.0551
1822.75,-59.0551
1825.8,-59.0551
1828.86,-59.0551
1831.91,-59.0551
1834.97,-59.0551
1838.02,-59.0551
1841.08,-59.0551
1844.13,-59.0551
1847.19,-59.0551
1850.24,-59.0551
1853.3,-59.0551
1856.35,-59.0551
1859.41,-59.0551
1862.46,-59.0551
1865.51,-59.0551
1868.57,-59.0551
1871.62,137.795
1874.68,137.795
1877.73,137.795
1880.79,137.795
1883.84,137.795
1886.9,137.795
1889.95,137.795
1893.01,137.795
1896.06,137.795
1899.12,137.795
1902.17,137.795
1905.23,137.795
1908.28,137.795
1911.33,137.795
1914.39,137.795
1917.44,137.795
1920.5,137.795
1923.55,137.795
1926.61,137.795
1929.66,137.795
1932.72,137.795
1935.77,137.795
1938.83,137.795
1941.88,137.795
1944.94,137.795
1947.99,137.795
1951.05,137.795
1954.1,137.795
1957.15,137.795
1960.21,137.795
1963.26,137.795
1966.32,137.795
1969.37,137.795
1972.43,137.795
1975.48,137.795
1978.54,137.795
1981.59,137.795
1984.65,137.795
1987.7,137.795
1990.76,137.795
1993.81,137.795
1996.86,137.795
1999.92,137.795
2002.97,137.795
2006.03,-59.0551
2009.08,-59.0551
2012.14,-59.0551
2015.19,-59.0551
2018.25,-59.0551
2021.3,-59.0551
2024.36,-59.0551
2027.41,-59.0551
2030.47,-59.0551
2033.52,-59.0551
2036.58,-59.0551
2039.63,-59.0551
2042.68,-59.0551
2045.74,-59.0551
2048.79,137.795
2051.85,137.795
2054.9,137.795
2057.96,137.795
2061.01,137.795
2064.07,137.795
2067.12,137.795
2070.18,137.795
2073.23,137.795
2076.29,137.795
2079.34,137.795
2082.4,137.795
2085.45,137.795
2088.5,137.795
2091.56,137.795
2094.61,137.795
2097.67,137.795
2100.72,137.795
2103.78,137.795
2106.83,137.795
2109.89,137.795
2112.94,137.795
2116,137.795
2119.05,137.795
2122.11,137.795
2125.16,137.795
2128.22,137.795
2131.27,137.795
2134.32,137.795
2137.38,137.795
2140.43,137.795
2143.49,137.795
2146.54,137.795
2149.6,137.795
2152.65,137.795
2155.71,137.795
2158.76,137.795
2161.82,137.795
2164.87,137.795
2167.93,137.795
2170.98,137.795
2174.04,137.795
2177.09,137.795
2180.14,137.795
2183.2,137.795
2186.25,137.795
2189.31,137.795
2192.36,137.795
2195.42,137.795
2198.47,137.795
2201.53,137.795
2204.58,137.795
2207.64,137.795
2210.69,137.795
2213.75,137.795
2216.8,137.795
2219.86,137.795
2222.91,137.795
2225.96,137.795
2229.02,137.795
2232.07,137.795
2235.13,137.795
2238.18,137.795
2241.24,137.795
2244.29,137.795
2247.35,137.795
2250.4,137.795
2253.46,137.795
2256.51,137.795
2259.57,137.795
2262.62,137.795
2265.68,137.795
2268.73,137.795
2271.78,137.795
2274.84,137.795
2277.89,137.795
2280.95,137.795
2284,137.795
2287.06,-59.0551
