,GP550R
RamanShit,Intensity
261.755,90.5512
264.815,90.5512
267.874,90.5512
270.934,90.5512
273.994,90.5512
277.053,90.5512
280.113,90.5512
283.172,90.5512
286.232,90.5512
289.291,161.417
292.351,161.417
295.411,161.417
298.47,161.417
301.53,161.417
304.589,161.417
307.649,161.417
310.709,232.283
313.768,232.283
316.828,232.283
319.887,303.15
322.947,303.15
326.006,444.882
329.066,1011.81
332.126,2996.06
335.185,4555.12
338.245,11358.3
341.304,13059.1
344.364,4413.39
347.424,2854.33
350.483,1082.68
353.543,586.614
356.602,374.016
359.662,374.016
362.721,444.882
365.781,586.614
368.841,1153.54
371.9,1507.87
374.96,2216.54
378.019,1507.87
381.079,1224.41
384.138,728.346
387.198,374.016
390.258,374.016
393.317,374.016
396.377,374.016
399.436,374.016
402.496,374.016
405.556,374.016
408.615,374.016
411.675,374.016
414.734,444.882
417.794,444.882
420.853,444.882
423.913,444.882
426.973,444.882
430.032,444.882
433.092,444.882
436.151,374.016
439.211,374.016
442.271,303.15
445.33,232.283
448.39,232.283
451.449,232.283
454.509,303.15
457.568,303.15
460.628,303.15
463.688,303.15
466.747,303.15
469.807,303.15
472.866,303.15
475.926,303.15
478.986,303.15
482.045,303.15
485.105,232.283
488.164,232.283
491.224,232.283
494.283,90.5512
497.343,90.5512
500.403,90.5512
503.462,90.5512
506.522,90.5512
509.581,90.5512
512.641,90.5512
515.7,90.5512
518.76,90.5512
521.82,90.5512
524.879,90.5512
527.939,161.417
530.998,161.417
534.058,161.417
537.118,161.417
540.177,161.417
543.237,161.417
546.296,161.417
549.356,161.417
552.415,232.283
555.475,232.283
558.535,232.283
561.594,232.283
564.654,232.283
567.713,232.283
570.773,232.283
573.833,232.283
576.892,232.283
579.952,232.283
583.011,232.283
586.071,232.283
589.13,232.283
592.19,232.283
595.25,232.283
598.309,303.15
601.369,303.15
604.428,303.15
607.488,303.15
610.548,232.283
613.607,232.283
616.667,232.283
619.726,232.283
622.786,232.283
625.845,161.417
628.905,161.417
631.965,161.417
635.024,161.417
638.084,161.417
641.143,161.417
644.203,90.5512
647.262,90.5512
650.322,90.5512
653.382,90.5512
656.441,90.5512
659.501,90.5512
662.56,90.5512
665.62,90.5512
668.68,90.5512
671.739,90.5512
674.799,90.5512
677.858,90.5512
680.918,161.417
683.977,161.417
687.037,161.417
690.097,161.417
693.156,90.5512
696.216,90.5512
699.275,90.5512
702.335,90.5512
705.395,90.5512
708.454,90.5512
711.514,161.417
714.573,161.417
717.633,161.417
720.692,161.417
723.752,161.417
726.812,161.417
729.871,161.417
732.931,161.417
735.99,161.417
739.05,161.417
742.11,161.417
745.169,161.417
748.229,161.417
751.288,161.417
754.348,161.417
757.407,161.417
760.467,232.283
763.527,303.15
766.586,444.882
769.646,444.882
772.705,515.748
775.765,515.748
778.824,444.882
781.884,444.882
784.944,444.882
788.003,515.748
791.063,586.614
794.122,728.346
797.182,799.213
800.242,799.213
803.301,799.213
806.361,799.213
809.42,799.213
812.48,657.48
815.539,586.614
818.599,444.882
821.659,303.15
824.718,232.283
827.778,232.283
830.837,232.283
833.897,232.283
836.957,232.283
840.016,303.15
843.076,303.15
846.135,374.016
849.195,374.016
852.254,444.882
855.314,515.748
858.374,586.614
861.433,657.48
864.493,728.346
867.552,728.346
870.612,728.346
873.671,657.48
876.731,444.882
879.791,232.283
882.85,161.417
885.91,90.5512
888.969,90.5512
892.029,90.5512
895.089,90.5512
898.148,90.5512
901.208,90.5512
904.267,90.5512
907.327,90.5512
910.386,90.5512
913.446,90.5512
916.506,90.5512
919.565,90.5512
922.625,90.5512
925.684,90.5512
928.744,90.5512
931.804,90.5512
934.863,90.5512
937.923,90.5512
940.982,90.5512
944.042,161.417
947.101,161.417
950.161,161.417
953.221,161.417
956.28,161.417
959.34,161.417
962.399,90.5512
965.459,90.5512
968.519,90.5512
971.578,90.5512
974.638,90.5512
977.697,90.5512
980.757,90.5512
983.816,90.5512
986.876,90.5512
989.936,90.5512
992.995,90.5512
996.055,90.5512
999.114,90.5512
1002.17,90.5512
1005.23,90.5512
1008.29,161.417
1011.35,90.5512
1014.41,90.5512
1017.47,90.5512
1020.53,90.5512
1023.59,90.5512
1026.65,90.5512
1029.71,90.5512
1032.77,90.5512
1035.83,90.5512
1038.89,90.5512
1041.95,161.417
1045.01,161.417
1048.07,161.417
1051.13,90.5512
1054.19,90.5512
1057.25,90.5512
1060.31,90.5512
1063.37,90.5512
1066.43,90.5512
1069.48,90.5512
1072.54,90.5512
1075.6,90.5512
1078.66,90.5512
1081.72,90.5512
1084.78,90.5512
1087.84,90.5512
1090.9,90.5512
1093.96,90.5512
1097.02,90.5512
1100.08,90.5512
1103.14,90.5512
1106.2,90.5512
1109.26,90.5512
1112.32,90.5512
1115.38,90.5512
1118.44,90.5512
1121.5,90.5512
1124.56,90.5512
1127.62,19.685
1130.68,19.685
1133.74,19.685
1136.8,19.685
1139.86,90.5512
1142.91,90.5512
1145.97,90.5512
1149.03,90.5512
1152.09,90.5512
1155.15,90.5512
1158.21,90.5512
1161.27,90.5512
1164.33,161.417
1167.39,161.417
1170.45,161.417
1173.51,161.417
1176.57,161.417
1179.63,161.417
1182.69,161.417
1185.75,161.417
1188.81,161.417
1191.87,161.417
1194.93,161.417
1197.99,161.417
1201.05,232.283
1204.11,303.15
1207.17,374.016
1210.23,444.882
1213.29,515.748
1216.34,586.614
1219.4,657.48
1222.46,657.48
1225.52,728.346
1228.58,799.213
1231.64,870.079
1234.7,1011.81
1237.76,1082.68
1240.82,1224.41
1243.88,1366.14
1246.94,1437.01
1250,1578.74
1253.06,1649.61
1256.12,1720.47
1259.18,1791.34
1262.24,1933.07
1265.3,2003.94
1268.36,2074.8
1271.42,2287.4
1274.48,2358.27
1277.54,2500
1280.6,2641.73
1283.66,2854.33
1286.71,3137.8
1289.77,3492.13
1292.83,3917.32
1295.89,4342.52
1298.95,4838.58
1302.01,5334.65
1305.07,5972.44
1308.13,6397.64
1311.19,6822.83
1314.25,7177.17
1317.31,7602.36
1320.37,7885.83
1323.43,7956.69
1326.49,8098.43
1329.55,8027.56
1332.61,7956.69
1335.67,7744.09
1338.73,7389.76
1341.79,6964.57
1344.85,6539.37
1347.91,6114.17
1350.97,5688.98
1354.03,5192.91
1357.09,4625.98
1360.14,4200.79
1363.2,3775.59
1366.26,3279.53
1369.32,2783.46
1372.38,2429.13
1375.44,2074.8
1378.5,1720.47
1381.56,1366.14
1384.62,1082.68
1387.68,799.213
1390.74,657.48
1393.8,444.882
1396.86,374.016
1399.92,232.283
1402.98,161.417
1406.04,90.5512
1409.1,90.5512
1412.16,19.685
1415.22,19.685
1418.28,19.685
1421.34,19.685
1424.4,90.5512
1427.46,90.5512
1430.52,90.5512
1433.57,90.5512
1436.63,90.5512
1439.69,90.5512
1442.75,90.5512
1445.81,90.5512
1448.87,90.5512
1451.93,90.5512
1454.99,90.5512
1458.05,90.5512
1461.11,90.5512
1464.17,90.5512
1467.23,90.5512
1470.29,90.5512
1473.35,90.5512
1476.41,90.5512
1479.47,90.5512
1482.53,90.5512
1485.59,90.5512
1488.65,90.5512
1491.71,90.5512
1494.77,90.5512
1497.83,90.5512
1500.89,90.5512
1503.95,90.5512
1507,90.5512
1510.06,90.5512
1513.12,90.5512
1516.18,90.5512
1519.24,90.5512
1522.3,90.5512
1525.36,90.5512
1528.42,161.417
1531.48,232.283
1534.54,232.283
1537.6,303.15
1540.66,444.882
1543.72,657.48
1546.78,940.945
1549.84,1295.28
1552.9,1862.2
1555.96,2287.4
1559.02,2712.6
1562.08,3137.8
1565.14,3775.59
1568.2,4625.98
1571.26,5618.11
1574.32,6610.24
1577.38,7744.09
1580.43,9019.69
1583.49,10295.3
1586.55,11570.9
1589.61,12775.6
1592.67,13909.4
1595.73,14618.1
1598.79,15397.6
1601.85,15255.9
1604.91,14689
1607.97,13980.3
1611.03,12563
1614.09,11145.7
1617.15,9586.61
1620.21,8027.56
1623.27,6468.5
1626.33,4980.31
1629.39,3704.72
1632.45,2641.73
1635.51,1862.2
1638.57,1295.28
1641.63,870.079
1644.69,586.614
1647.75,444.882
1650.81,303.15
1653.86,161.417
1656.92,90.5512
1659.98,90.5512
1663.04,90.5512
1666.1,90.5512
1669.16,90.5512
1672.22,90.5512
1675.28,90.5512
1678.34,90.5512
1681.4,90.5512
1684.46,90.5512
1687.52,90.5512
1690.58,90.5512
1693.64,90.5512
1696.7,90.5512
1699.76,90.5512
1702.82,90.5512
1705.88,90.5512
1708.94,90.5512
1712,90.5512
1715.06,90.5512
1718.12,90.5512
1721.18,90.5512
1724.24,90.5512
1727.29,90.5512
1730.35,90.5512
1733.41,90.5512
1736.47,90.5512
1739.53,90.5512
1742.59,90.5512
1745.65,90.5512
1748.71,90.5512
1751.77,90.5512
1754.83,90.5512
1757.89,90.5512
1760.95,90.5512
1764.01,90.5512
1767.07,90.5512
1770.13,90.5512
1773.19,90.5512
1776.25,90.5512
1779.31,90.5512
1782.37,161.417
1785.43,161.417
1788.49,161.417
1791.55,90.5512
1794.61,90.5512
1797.67,90.5512
1800.72,90.5512
1803.78,90.5512
1806.84,90.5512
1809.9,90.5512
1812.96,161.417
1816.02,161.417
1819.08,161.417
1822.14,161.417
1825.2,90.5512
1828.26,90.5512
1831.32,90.5512
1834.38,90.5512
1837.44,90.5512
1840.5,90.5512
1843.56,90.5512
1846.62,90.5512
1849.68,90.5512
1852.74,90.5512
1855.8,90.5512
1858.86,90.5512
1861.92,90.5512
1864.98,90.5512
1868.04,90.5512
1871.1,90.5512
1874.15,90.5512
1877.21,90.5512
1880.27,90.5512
1883.33,90.5512
1886.39,90.5512
1889.45,90.5512
1892.51,90.5512
1895.57,90.5512
1898.63,90.5512
1901.69,90.5512
1904.75,90.5512
1907.81,90.5512
1910.87,90.5512
1913.93,90.5512
1916.99,90.5512
1920.05,90.5512
1923.11,90.5512
1926.17,90.5512
1929.23,90.5512
1932.29,90.5512
1935.35,161.417
1938.41,161.417
1941.47,161.417
1944.52,161.417
1947.58,90.5512
1950.64,90.5512
1953.7,90.5512
1956.76,90.5512
1959.82,90.5512
1962.88,90.5512
1965.94,90.5512
1969,90.5512
1972.06,90.5512
1975.12,90.5512
1978.18,90.5512
1981.24,90.5512
1984.3,161.417
1987.36,161.417
1990.42,161.417
1993.48,161.417
1996.54,161.417
1999.6,161.417
2002.66,161.417
2005.72,161.417
2008.78,161.417
2011.84,161.417
2014.9,161.417
2017.95,161.417
2021.01,161.417
2024.07,161.417
2027.13,161.417
2030.19,161.417
2033.25,161.417
2036.31,161.417
2039.37,161.417
2042.43,161.417
2045.49,161.417
2048.55,161.417
2051.61,161.417
2054.67,161.417
2057.73,161.417
2060.79,161.417
2063.85,161.417
2066.91,161.417
2069.97,161.417
2073.03,161.417
2076.09,161.417
2079.15,161.417
2082.21,161.417
2085.27,161.417
2088.33,161.417
2091.38,90.5512
2094.44,90.5512
2097.5,90.5512
2100.56,90.5512
2103.62,90.5512
2106.68,90.5512
2109.74,161.417
2112.8,161.417
2115.86,161.417
2118.92,161.417
2121.98,161.417
2125.04,161.417
2128.1,161.417
2131.16,90.5512
2134.22,90.5512
2137.28,90.5512
2140.34,90.5512
2143.4,90.5512
2146.46,90.5512
2149.52,90.5512
2152.58,161.417
2155.64,161.417
2158.7,161.417
2161.76,90.5512
2164.81,90.5512
2167.87,90.5512
2170.93,90.5512
2173.99,90.5512
2177.05,90.5512
2180.11,90.5512
2183.17,90.5512
2186.23,90.5512
2189.29,90.5512
2192.35,90.5512
2195.41,90.5512
2198.47,90.5512
2201.53,90.5512
2204.59,90.5512
2207.65,90.5512
2210.71,90.5512
2213.77,161.417
2216.83,161.417
2219.89,161.417
2222.95,161.417
2226.01,161.417
2229.07,161.417
2232.13,161.417
2235.19,161.417
2238.24,161.417
2241.3,161.417
2244.36,161.417
2247.42,161.417
2250.48,161.417
2253.54,161.417
2256.6,161.417
2259.66,161.417
2262.72,161.417
2265.78,90.5512
2268.84,90.5512
2271.9,90.5512
2274.96,90.5512
2278.02,90.5512
2281.08,90.5512
2284.14,90.5512
2287.2,161.417
2290.26,161.417
