,GP550R
RamanShit,Intensity
261.755,137.795
264.815,334.646
267.874,334.646
270.934,137.795
273.994,137.795
277.053,137.795
280.113,-59.0551
283.172,-59.0551
286.232,-59.0551
289.291,-59.0551
292.351,-59.0551
295.411,137.795
298.47,137.795
301.53,137.795
304.589,334.646
307.649,531.496
310.709,728.346
313.768,1122.05
316.828,1909.45
319.887,2696.85
322.947,3681.1
326.006,4074.8
329.066,4074.8
332.126,4074.8
335.185,3877.95
338.245,3287.4
341.304,2893.7
344.364,2500
347.424,2106.3
350.483,1909.45
353.543,1515.75
356.602,1318.9
359.662,925.197
362.721,531.496
365.781,531.496
368.841,334.646
371.9,334.646
374.96,137.795
378.019,137.795
381.079,137.795
384.138,334.646
387.198,531.496
390.258,531.496
393.317,531.496
396.377,531.496
399.436,728.346
402.496,925.197
405.556,1515.75
408.615,2303.15
411.675,3287.4
414.734,3877.95
417.794,4665.35
420.853,3877.95
423.913,3681.1
426.973,2893.7
430.032,1909.45
433.092,1318.9
436.151,1122.05
439.211,728.346
442.271,531.496
445.33,334.646
448.39,334.646
451.449,334.646
454.509,334.646
457.568,531.496
460.628,531.496
463.688,728.346
466.747,728.346
469.807,531.496
472.866,334.646
475.926,137.795
478.986,-59.0551
482.045,-59.0551
485.105,-59.0551
488.164,-59.0551
491.224,137.795
494.283,334.646
497.343,531.496
500.403,728.346
503.462,925.197
506.522,1318.9
509.581,1318.9
512.641,1318.9
515.7,1122.05
518.76,728.346
521.82,334.646
524.879,137.795
527.939,-59.0551
530.998,-59.0551
534.058,-59.0551
537.118,137.795
540.177,334.646
543.237,334.646
546.296,334.646
549.356,531.496
552.415,728.346
555.475,728.346
558.535,925.197
561.594,728.346
564.654,728.346
567.713,728.346
570.773,728.346
573.833,728.346
576.892,728.346
579.952,531.496
583.011,137.795
586.071,-59.0551
589.13,-59.0551
592.19,-59.0551
595.25,-59.0551
598.309,-59.0551
601.369,-59.0551
604.428,-59.0551
607.488,-59.0551
610.548,-59.0551
613.607,-59.0551
616.667,-59.0551
619.726,-59.0551
622.786,137.795
625.845,137.795
628.905,334.646
631.965,334.646
635.024,531.496
638.084,728.346
641.143,1122.05
644.203,1909.45
647.262,2893.7
650.322,4468.5
653.382,7027.56
656.441,11358.3
659.501,17066.9
662.56,22381.9
665.62,24940.9
668.68,27893.7
671.739,30846.5
674.799,23563
677.858,18838.6
680.918,13129.9
683.977,8996.06
687.037,5846.46
690.097,3484.25
693.156,2303.15
696.216,1515.75
699.275,925.197
702.335,728.346
705.395,334.646
708.454,334.646
711.514,334.646
714.573,334.646
717.633,334.646
720.692,334.646
723.752,334.646
726.812,137.795
729.871,137.795
732.931,137.795
735.99,137.795
739.05,137.795
742.11,137.795
745.169,137.795
748.229,137.795
751.288,-59.0551
754.348,-59.0551
757.407,-59.0551
760.467,-59.0551
763.527,-59.0551
766.586,-59.0551
769.646,-59.0551
772.705,-59.0551
775.765,-59.0551
778.824,-59.0551
781.884,-59.0551
784.944,-59.0551
788.003,-59.0551
791.063,-59.0551
794.122,-59.0551
797.182,-59.0551
800.242,-59.0551
803.301,-59.0551
806.361,-59.0551
809.42,-59.0551
812.48,-59.0551
815.539,-59.0551
818.599,-59.0551
821.659,-59.0551
824.718,-59.0551
827.778,-59.0551
830.837,-59.0551
833.897,-59.0551
836.957,-59.0551
840.016,-59.0551
843.076,-59.0551
846.135,-59.0551
849.195,-59.0551
852.254,-59.0551
855.314,-59.0551
858.374,-59.0551
861.433,-59.0551
864.493,-59.0551
867.552,-59.0551
870.612,137.795
873.671,334.646
876.731,728.346
879.791,1122.05
882.85,1122.05
885.91,1122.05
888.969,925.197
892.029,531.496
895.089,137.795
898.148,137.795
901.208,137.795
904.267,-59.0551
907.327,-59.0551
910.386,-59.0551
913.446,-59.0551
916.506,137.795
919.565,-59.0551
922.625,-59.0551
925.684,-59.0551
928.744,-59.0551
931.804,137.795
934.863,334.646
937.923,531.496
940.982,728.346
944.042,728.346
947.101,531.496
950.161,531.496
953.221,531.496
956.28,531.496
959.34,925.197
962.399,1909.45
965.459,3484.25
968.519,6633.86
971.578,11161.4
974.638,13917.3
977.697,16870.1
980.757,13917.3
983.816,13523.6
986.876,13326.8
989.936,13129.9
992.995,13523.6
996.055,14507.9
999.114,15492.1
1002.17,17460.6
1005.23,15492.1
1008.29,13523.6
1011.35,9783.46
1014.41,6830.71
1017.47,4468.5
1020.53,2696.85
1023.59,1712.6
1026.65,1318.9
1029.71,925.197
1032.77,925.197
1035.83,925.197
1038.89,1122.05
1041.95,1122.05
1045.01,1318.9
1048.07,1318.9
1051.13,1122.05
1054.19,728.346
1057.25,334.646
1060.31,137.795
1063.37,-59.0551
1066.43,-59.0551
1069.48,-59.0551
1072.54,-59.0551
1075.6,-59.0551
1078.66,137.795
1081.72,334.646
1084.78,728.346
1087.84,728.346
1090.9,728.346
1093.96,531.496
1097.02,531.496
1100.08,334.646
1103.14,137.795
1106.2,-59.0551
1109.26,-59.0551
1112.32,-59.0551
1115.38,-59.0551
1118.44,-59.0551
1121.5,-59.0551
1124.56,-59.0551
1127.62,-59.0551
1130.68,-59.0551
1133.74,-59.0551
1136.8,-59.0551
1139.86,-59.0551
1142.91,-59.0551
1145.97,-59.0551
1149.03,-59.0551
1152.09,-59.0551
1155.15,-59.0551
1158.21,-59.0551
1161.27,-59.0551
1164.33,-59.0551
1167.39,-59.0551
1170.45,-59.0551
1173.51,-59.0551
1176.57,-59.0551
1179.63,-59.0551
1182.69,-59.0551
1185.75,-59.0551
1188.81,-59.0551
1191.87,137.795
1194.93,137.795
1197.99,137.795
1201.05,137.795
1204.11,137.795
1207.17,137.795
1210.23,137.795
1213.29,137.795
1216.34,137.795
1219.4,137.795
1222.46,137.795
1225.52,137.795
1228.58,137.795
1231.64,137.795
1234.7,137.795
1237.76,137.795
1240.82,137.795
1243.88,137.795
1246.94,137.795
1250,334.646
1253.06,334.646
1256.12,334.646
1259.18,531.496
1262.24,728.346
1265.3,728.346
1268.36,728.346
1271.42,925.197
1274.48,925.197
1277.54,1122.05
1280.6,1318.9
1283.66,1515.75
1286.71,2106.3
1289.77,2500
1292.83,2893.7
1295.89,2893.7
1298.95,2696.85
1302.01,2500
1305.07,2106.3
1308.13,1515.75
1311.19,1122.05
1314.25,925.197
1317.31,531.496
1320.37,334.646
1323.43,334.646
1326.49,137.795
1329.55,137.795
1332.61,137.795
1335.67,137.795
1338.73,137.795
1341.79,137.795
1344.85,137.795
1347.91,137.795
1350.97,137.795
1354.03,137.795
1357.09,137.795
1360.14,-59.0551
1363.2,-59.0551
1366.26,-59.0551
1369.32,-59.0551
1372.38,-59.0551
1375.44,-59.0551
1378.5,-59.0551
1381.56,-59.0551
1384.62,-59.0551
1387.68,-59.0551
1390.74,-59.0551
1393.8,-59.0551
1396.86,137.795
1399.92,137.795
1402.98,137.795
1406.04,334.646
1409.1,334.646
1412.16,334.646
1415.22,531.496
1418.28,334.646
1421.34,334.646
1424.4,334.646
1427.46,334.646
1430.52,334.646
1433.57,334.646
1436.63,334.646
1439.69,334.646
1442.75,334.646
1445.81,334.646
1448.87,334.646
1451.93,334.646
1454.99,334.646
1458.05,334.646
1461.11,334.646
1464.17,531.496
1467.23,531.496
1470.29,531.496
1473.35,531.496
1476.41,531.496
1479.47,728.346
1482.53,728.346
1485.59,728.346
1488.65,531.496
1491.71,531.496
1494.77,334.646
1497.83,137.795
1500.89,137.795
1503.95,137.795
1507,-59.0551
1510.06,-59.0551
1513.12,-59.0551
1516.18,-59.0551
1519.24,-59.0551
1522.3,-59.0551
1525.36,-59.0551
1528.42,137.795
1531.48,137.795
1534.54,137.795
1537.6,137.795
1540.66,137.795
1543.72,137.795
1546.78,334.646
1549.84,334.646
1552.9,334.646
1555.96,334.646
1559.02,334.646
1562.08,334.646
1565.14,334.646
1568.2,334.646
1571.26,334.646
1574.32,334.646
1577.38,334.646
1580.43,334.646
1583.49,334.646
1586.55,137.795
1589.61,137.795
1592.67,137.795
1595.73,137.795
1598.79,137.795
1601.85,137.795
1604.91,137.795
1607.97,137.795
1611.03,-59.0551
1614.09,-59.0551
1617.15,-59.0551
1620.21,-59.0551
1623.27,-59.0551
1626.33,-59.0551
1629.39,-59.0551
1632.45,-59.0551
1635.51,-59.0551
1638.57,-59.0551
1641.63,137.795
1644.69,137.795
1647.75,137.795
1650.81,137.795
1653.86,334.646
1656.92,334.646
1659.98,334.646
1663.04,334.646
1666.1,531.496
1669.16,531.496
1672.22,531.496
1675.28,531.496
1678.34,531.496
1681.4,334.646
1684.46,334.646
1687.52,334.646
1690.58,334.646
1693.64,334.646
1696.7,137.795
1699.76,137.795
1702.82,137.795
1705.88,137.795
1708.94,137.795
1712,-59.0551
1715.06,-59.0551
1718.12,-59.0551
1721.18,-59.0551
1724.24,-59.0551
1727.29,-59.0551
1730.35,-59.0551
1733.41,-59.0551
1736.47,-59.0551
1739.53,-59.0551
1742.59,-59.0551
1745.65,-59.0551
1748.71,-59.0551
1751.77,-59.0551
1754.83,137.795
1757.89,137.795
1760.95,137.795
1764.01,137.795
1767.07,334.646
1770.13,334.646
1773.19,334.646
1776.25,334.646
1779.31,531.496
1782.37,531.496
1785.43,531.496
1788.49,531.496
1791.55,531.496
1794.61,531.496
1797.67,531.496
1800.72,531.496
1803.78,531.496
1806.84,531.496
1809.9,334.646
1812.96,334.646
1816.02,334.646
1819.08,334.646
1822.14,334.646
1825.2,137.795
1828.26,137.795
1831.32,137.795
1834.38,137.795
1837.44,137.795
1840.5,137.795
1843.56,137.795
1846.62,-59.0551
1849.68,-59.0551
1852.74,-59.0551
1855.8,-59.0551
1858.86,-59.0551
1861.92,-59.0551
1864.98,-59.0551
1868.04,-59.0551
1871.1,-59.0551
1874.15,-59.0551
1877.21,-59.0551
1880.27,-59.0551
1883.33,-59.0551
1886.39,-59.0551
1889.45,-59.0551
1892.51,-59.0551
1895.57,-59.0551
1898.63,-59.0551
1901.69,-59.0551
1904.75,-59.0551
1907.81,-59.0551
1910.87,-59.0551
1913.93,-59.0551
1916.99,-59.0551
1920.05,-59.0551
1923.11,-59.0551
1926.17,-59.0551
1929.23,-59.0551
1932.29,-59.0551
1935.35,-59.0551
1938.41,-59.0551
1941.47,-59.0551
1944.52,-59.0551
1947.58,-59.0551
1950.64,-59.0551
1953.7,-59.0551
1956.76,-59.0551
1959.82,-59.0551
1962.88,-59.0551
1965.94,-59.0551
1969,-59.0551
1972.06,-59.0551
1975.12,-59.0551
1978.18,-59.0551
1981.24,-59.0551
1984.3,-59.0551
1987.36,-59.0551
1990.42,137.795
1993.48,137.795
1996.54,137.795
1999.6,137.795
2002.66,137.795
2005.72,137.795
2008.78,137.795
2011.84,137.795
2014.9,137.795
2017.95,137.795
2021.01,137.795
2024.07,137.795
2027.13,137.795
2030.19,137.795
2033.25,137.795
2036.31,-59.0551
2039.37,-59.0551
2042.43,-59.0551
2045.49,-59.0551
2048.55,-59.0551
2051.61,-59.0551
2054.67,-59.0551
2057.73,-59.0551
2060.79,-59.0551
2063.85,-59.0551
2066.91,-59.0551
2069.97,-59.0551
2073.03,-59.0551
2076.09,-59.0551
2079.15,-59.0551
2082.21,-59.0551
2085.27,-59.0551
2088.33,-59.0551
2091.38,-59.0551
2094.44,-59.0551
2097.5,-59.0551
2100.56,-59.0551
2103.62,-59.0551
2106.68,-59.0551
2109.74,-59.0551
2112.8,-59.0551
2115.86,-59.0551
2118.92,-59.0551
2121.98,-59.0551
2125.04,-59.0551
2128.1,-59.0551
2131.16,-59.0551
2134.22,-59.0551
2137.28,-59.0551
2140.34,-59.0551
2143.4,-59.0551
2146.46,-59.0551
2149.52,-59.0551
2152.58,-59.0551
2155.64,-59.0551
2158.7,-59.0551
2161.76,-59.0551
2164.81,-59.0551
2167.87,-59.0551
2170.93,-59.0551
2173.99,-59.0551
2177.05,-59.0551
2180.11,-59.0551
2183.17,-59.0551
2186.23,-59.0551
2189.29,-59.0551
2192.35,-59.0551
2195.41,-59.0551
2198.47,-59.0551
2201.53,-59.0551
2204.59,-59.0551
2207.65,-59.0551
2210.71,-59.0551
2213.77,-59.0551
2216.83,-59.0551
2219.89,-59.0551
2222.95,-59.0551
2226.01,-59.0551
2229.07,-59.0551
2232.13,-59.0551
2235.19,-59.0551
2238.24,-59.0551
2241.3,-59.0551
2244.36,-59.0551
2247.42,-59.0551
2250.48,-59.0551
2253.54,-59.0551
2256.6,-59.0551
2259.66,-59.0551
2262.72,-59.0551
2265.78,-59.0551
2268.84,-59.0551
2271.9,-59.0551
2274.96,-59.0551
2278.02,-59.0551
2281.08,-59.0551
2284.14,-59.0551
2287.2,-59.0551
2290.26,-59.0551
2293.32,-59.0551
