,GP550R
RamanShit,Intensity
264.815,235.294
267.874,156.863
270.934,156.863
273.994,78.4314
277.053,78.4314
280.113,78.4314
283.172,78.4314
286.232,156.863
289.291,156.863
292.351,156.863
295.411,156.863
298.47,156.863
301.53,156.863
304.589,156.863
307.649,78.4314
310.709,78.4314
313.768,78.4314
316.828,78.4314
319.887,78.4314
322.947,78.4314
326.006,78.4314
329.066,78.4314
332.126,156.863
335.185,156.863
338.245,156.863
341.304,156.863
344.364,156.863
347.424,156.863
350.483,156.863
353.543,235.294
356.602,235.294
359.662,313.725
362.721,313.725
365.781,235.294
368.841,235.294
371.9,235.294
374.96,235.294
378.019,156.863
381.079,156.863
384.138,156.863
387.198,156.863
390.258,156.863
393.317,78.4314
396.377,78.4314
399.436,78.4314
402.496,78.4314
405.556,78.4314
408.615,78.4314
411.675,78.4314
414.734,78.4314
417.794,78.4314
420.853,78.4314
423.913,78.4314
426.973,78.4314
430.032,78.4314
433.092,78.4314
436.151,156.863
439.211,156.863
442.271,235.294
445.33,392.157
448.39,627.451
451.449,1019.61
454.509,1490.2
457.568,1803.92
460.628,1960.78
463.688,1725.49
466.747,1568.63
469.807,1098.04
472.866,784.314
475.926,549.02
478.986,392.157
482.045,235.294
485.105,235.294
488.164,156.863
491.224,156.863
494.283,156.863
497.343,156.863
500.403,156.863
503.462,156.863
506.522,156.863
509.581,156.863
512.641,156.863
515.7,235.294
518.76,235.294
521.82,235.294
524.879,313.725
527.939,470.588
530.998,549.02
534.058,784.314
537.118,862.745
540.177,941.176
543.237,784.314
546.296,705.882
549.356,470.588
552.415,392.157
555.475,235.294
558.535,235.294
561.594,156.863
564.654,156.863
567.713,78.4314
570.773,78.4314
573.833,78.4314
576.892,78.4314
579.952,78.4314
583.011,78.4314
586.071,78.4314
589.13,78.4314
592.19,78.4314
595.25,78.4314
598.309,78.4314
601.369,78.4314
604.428,78.4314
607.488,78.4314
610.548,78.4314
613.607,78.4314
616.667,78.4314
619.726,78.4314
622.786,78.4314
625.845,78.4314
628.905,78.4314
631.965,78.4314
635.024,78.4314
638.084,156.863
641.143,156.863
644.203,156.863
647.262,156.863
650.322,156.863
653.382,156.863
656.441,156.863
659.501,156.863
662.56,156.863
665.62,156.863
668.68,156.863
671.739,156.863
674.799,156.863
677.858,156.863
680.918,156.863
683.977,156.863
687.037,156.863
690.097,156.863
693.156,156.863
696.216,156.863
699.275,156.863
702.335,156.863
705.395,156.863
708.454,156.863
711.514,156.863
714.573,156.863
717.633,156.863
720.692,78.4314
723.752,78.4314
726.812,78.4314
729.871,78.4314
732.931,78.4314
735.99,78.4314
739.05,78.4314
742.11,78.4314
745.169,78.4314
748.229,78.4314
751.288,78.4314
754.348,78.4314
757.407,78.4314
760.467,156.863
763.527,156.863
766.586,235.294
769.646,313.725
772.705,313.725
775.765,392.157
778.824,392.157
781.884,313.725
784.944,313.725
788.003,235.294
791.063,156.863
794.122,156.863
797.182,78.4314
800.242,78.4314
803.301,78.4314
806.361,78.4314
809.42,78.4314
812.48,78.4314
815.539,78.4314
818.599,78.4314
821.659,78.4314
824.718,78.4314
827.778,78.4314
830.837,78.4314
833.897,78.4314
836.957,78.4314
840.016,78.4314
843.076,78.4314
846.135,78.4314
849.195,78.4314
852.254,78.4314
855.314,78.4314
858.374,78.4314
861.433,78.4314
864.493,78.4314
867.552,78.4314
870.612,78.4314
873.671,78.4314
876.731,78.4314
879.791,78.4314
882.85,78.4314
885.91,78.4314
888.969,78.4314
892.029,78.4314
895.089,78.4314
898.148,78.4314
901.208,78.4314
904.267,78.4314
907.327,78.4314
910.386,78.4314
913.446,78.4314
916.506,78.4314
919.565,78.4314
922.625,78.4314
925.684,78.4314
928.744,78.4314
931.804,78.4314
934.863,78.4314
937.923,78.4314
940.982,78.4314
944.042,78.4314
947.101,78.4314
950.161,78.4314
953.221,78.4314
956.28,78.4314
959.34,78.4314
962.399,78.4314
965.459,78.4314
968.519,78.4314
971.578,78.4314
974.638,78.4314
977.697,78.4314
980.757,78.4314
983.816,78.4314
986.876,78.4314
989.936,156.863
992.995,156.863
996.055,235.294
999.114,235.294
1002.17,156.863
1005.23,78.4314
1008.29,78.4314
1011.35,78.4314
1014.41,78.4314
1017.47,78.4314
1020.53,78.4314
1023.59,78.4314
1026.65,78.4314
1029.71,78.4314
1032.77,78.4314
1035.83,78.4314
1038.89,78.4314
1041.95,78.4314
1045.01,78.4314
1048.07,78.4314
1051.13,78.4314
1054.19,78.4314
1057.25,78.4314
1060.31,0
1063.37,0
1066.43,0
1069.48,0
1072.54,0
1075.6,78.4314
1078.66,78.4314
1081.72,156.863
1084.78,313.725
1087.84,470.588
1090.9,705.882
1093.96,1019.61
1097.02,1490.2
1100.08,1960.78
1103.14,2431.37
1106.2,3058.82
1109.26,3686.27
1112.32,4392.16
1115.38,5333.33
1118.44,6196.08
1121.5,7058.82
1124.56,7843.14
1127.62,8549.02
1130.68,9333.33
1133.74,9960.78
1136.8,10117.6
1139.86,10117.6
1142.91,10039.2
1145.97,9960.78
1149.03,9725.49
1152.09,9333.33
1155.15,8941.18
1158.21,8549.02
1161.27,8156.86
1164.33,7764.71
1167.39,7372.55
1170.45,6823.53
1173.51,6274.51
1176.57,5411.76
1179.63,4627.45
1182.69,4078.43
1185.75,3372.55
1188.81,2823.53
1191.87,2431.37
1194.93,2117.65
1197.99,1725.49
1201.05,1490.2
1204.11,1254.9
1207.17,1019.61
1210.23,784.314
1213.29,627.451
1216.34,549.02
1219.4,392.157
1222.46,313.725
1225.52,156.863
1228.58,156.863
1231.64,78.4314
1234.7,78.4314
1237.76,78.4314
1240.82,0
1243.88,0
1246.94,0
1250,0
1253.06,0
1256.12,0
1259.18,0
1262.24,0
1265.3,0
1268.36,0
1271.42,0
1274.48,78.4314
1277.54,156.863
1280.6,313.725
1283.66,627.451
1286.71,1019.61
1289.77,1490.2
1292.83,1960.78
1295.89,2431.37
1298.95,2980.39
1302.01,3607.84
1305.07,4156.86
1308.13,4862.75
1311.19,5568.63
1314.25,6274.51
1317.31,7058.82
1320.37,8000
1323.43,8941.18
1326.49,9960.78
1329.55,11058.8
1332.61,12235.3
1335.67,13411.8
1338.73,14509.8
1341.79,15294.1
1344.85,15843.1
1347.91,16156.9
1350.97,16392.2
1354.03,16470.6
1357.09,16470.6
1360.14,16549
1363.2,16470.6
1366.26,16392.2
1369.32,15686.3
1372.38,14666.7
1375.44,13490.2
1378.5,12078.4
1381.56,10588.2
1384.62,9254.9
1387.68,8078.43
1390.74,7058.82
1393.8,6352.94
1396.86,5725.49
1399.92,5254.9
1402.98,4862.75
1406.04,4392.16
1409.1,4000
1412.16,3450.98
1415.22,2980.39
1418.28,2431.37
1421.34,1960.78
1424.4,1490.2
1427.46,1019.61
1430.52,627.451
1433.57,392.157
1436.63,235.294
1439.69,156.863
1442.75,78.4314
1445.81,0
1448.87,0
1451.93,0
1454.99,0
1458.05,78.4314
1461.11,156.863
1464.17,235.294
1467.23,313.725
1470.29,549.02
1473.35,784.314
1476.41,1098.04
1479.47,1411.76
1482.53,1725.49
1485.59,2039.22
1488.65,2431.37
1491.71,2666.67
1494.77,2823.53
1497.83,2901.96
1500.89,2901.96
1503.95,2823.53
1507,2745.1
1510.06,2509.8
1513.12,2117.65
1516.18,1803.92
1519.24,1411.76
1522.3,1098.04
1525.36,784.314
1528.42,549.02
1531.48,313.725
1534.54,235.294
1537.6,156.863
1540.66,156.863
1543.72,156.863
1546.78,156.863
1549.84,235.294
1552.9,313.725
1555.96,392.157
1559.02,470.588
1562.08,470.588
1565.14,470.588
1568.2,470.588
1571.26,470.588
1574.32,470.588
1577.38,470.588
1580.43,392.157
1583.49,313.725
1586.55,235.294
1589.61,156.863
1592.67,78.4314
1595.73,78.4314
1598.79,78.4314
1601.85,78.4314
1604.91,156.863
1607.97,235.294
1611.03,392.157
1614.09,784.314
1617.15,1098.04
1620.21,1490.2
1623.27,1960.78
1626.33,2352.94
1629.39,2666.67
1632.45,2980.39
1635.51,3215.69
1638.57,3294.12
1641.63,3294.12
1644.69,3294.12
1647.75,3215.69
1650.81,3215.69
1653.86,3137.25
1656.92,3137.25
1659.98,3137.25
1663.04,3137.25
1666.1,3137.25
1669.16,3294.12
1672.22,3450.98
1675.28,3607.84
1678.34,3764.71
1681.4,4000
1684.46,4235.29
1687.52,4470.59
1690.58,4784.31
1693.64,5019.61
1696.7,5254.9
1699.76,5411.76
1702.82,5568.63
1705.88,5568.63
1708.94,5647.06
1712,5647.06
1715.06,5568.63
1718.12,5490.2
1721.18,5333.33
1724.24,5176.47
1727.29,4941.18
1730.35,4705.88
1733.41,4549.02
1736.47,4392.16
1739.53,4156.86
1742.59,3764.71
1745.65,3450.98
1748.71,3137.25
1751.77,2745.1
1754.83,2352.94
1757.89,1960.78
1760.95,1568.63
1764.01,1254.9
1767.07,941.176
1770.13,627.451
1773.19,392.157
1776.25,235.294
1779.31,78.4314
1782.37,78.4314
1785.43,78.4314
1788.49,78.4314
1791.55,156.863
1794.61,235.294
1797.67,392.157
1800.72,549.02
1803.78,862.745
1806.84,1176.47
1809.9,1568.63
1812.96,1960.78
1816.02,2431.37
1819.08,2901.96
1822.14,3372.55
1825.2,3921.57
1828.26,4392.16
1831.32,4784.31
1834.38,5019.61
1837.44,5254.9
1840.5,5490.2
1843.56,5647.06
1846.62,5803.92
1849.68,5882.35
1852.74,5960.78
1855.8,6039.22
1858.86,6117.65
1861.92,6274.51
1864.98,6431.37
1868.04,6431.37
1871.1,6509.8
1874.15,6431.37
1877.21,6352.94
1880.27,6117.65
1883.33,5725.49
1886.39,5176.47
1889.45,4627.45
1892.51,4078.43
1895.57,3529.41
1898.63,2901.96
1901.69,2352.94
1904.75,1882.35
1907.81,1411.76
1910.87,1019.61
1913.93,705.882
1916.99,392.157
1920.05,235.294
1923.11,156.863
1926.17,78.4314
1929.23,0
1932.29,0
1935.35,0
1938.41,0
1941.47,0
1944.52,78.4314
1947.58,78.4314
1950.64,78.4314
1953.7,78.4314
1956.76,78.4314
1959.82,78.4314
1962.88,78.4314
1965.94,78.4314
1969,78.4314
1972.06,78.4314
1975.12,78.4314
1978.18,78.4314
1981.24,78.4314
1984.3,78.4314
1987.36,78.4314
1990.42,78.4314
1993.48,78.4314
1996.54,78.4314
1999.6,78.4314
2002.66,78.4314
2005.72,78.4314
2008.78,78.4314
2011.84,78.4314
2014.9,78.4314
2017.95,78.4314
2021.01,78.4314
2024.07,78.4314
2027.13,78.4314
2030.19,78.4314
2033.25,78.4314
2036.31,78.4314
2039.37,78.4314
2042.43,78.4314
2045.49,78.4314
2048.55,78.4314
2051.61,78.4314
2054.67,78.4314
2057.73,78.4314
2060.79,78.4314
2063.85,78.4314
2066.91,78.4314
2069.97,78.4314
2073.03,78.4314
2076.09,78.4314
2079.15,78.4314
2082.21,78.4314
2085.27,78.4314
2088.33,78.4314
2091.38,78.4314
2094.44,78.4314
2097.5,78.4314
2100.56,78.4314
2103.62,78.4314
2106.68,78.4314
2109.74,78.4314
2112.8,78.4314
2115.86,78.4314
2118.92,78.4314
2121.98,78.4314
2125.04,78.4314
2128.1,78.4314
2131.16,78.4314
2134.22,78.4314
2137.28,78.4314
2140.34,78.4314
2143.4,78.4314
2146.46,78.4314
2149.52,78.4314
2152.58,78.4314
2155.64,78.4314
2158.7,78.4314
2161.76,78.4314
2164.81,78.4314
2167.87,78.4314
2170.93,78.4314
2173.99,78.4314
2177.05,78.4314
2180.11,78.4314
2183.17,78.4314
2186.23,78.4314
2189.29,78.4314
2192.35,78.4314
2195.41,78.4314
2198.47,78.4314
2201.53,78.4314
2204.59,78.4314
2207.65,78.4314
2210.71,78.4314
2213.77,78.4314
2216.83,78.4314
2219.89,78.4314
2222.95,78.4314
2226.01,78.4314
2229.07,78.4314
2232.13,78.4314
2235.19,78.4314
2238.24,78.4314
2241.3,78.4314
2244.36,78.4314
2247.42,78.4314
2250.48,78.4314
2253.54,78.4314
2256.6,78.4314
2259.66,78.4314
2262.72,78.4314
2265.78,78.4314
2268.84,78.4314
2271.9,78.4314
2274.96,78.4314
2278.02,78.4314
2281.08,78.4314
2284.14,78.4314
2287.2,78.4314
2290.26,78.4314
2293.32,78.4314
