,GP550R
RamanShit,Intensity
261.817,748.031
264.871,1220.47
267.926,1929.13
270.981,3110.24
274.035,4527.56
277.09,6889.76
280.145,9960.63
283.199,11850.4
286.254,12795.3
289.309,11850.4
292.363,10669.3
295.418,8307.09
298.473,5708.66
301.527,4055.12
304.582,2874.02
307.637,1929.13
310.691,1456.69
313.746,1220.47
316.801,984.252
319.855,748.031
322.91,511.811
325.965,511.811
329.019,275.591
332.074,275.591
335.129,275.591
338.183,275.591
341.238,275.591
344.293,275.591
347.347,275.591
350.402,275.591
353.457,275.591
356.511,275.591
359.566,275.591
362.621,275.591
365.675,275.591
368.73,275.591
371.785,275.591
374.839,275.591
377.894,275.591
380.949,275.591
384.003,275.591
387.058,275.591
390.113,275.591
393.167,275.591
396.222,275.591
399.277,275.591
402.331,275.591
405.386,275.591
408.441,275.591
411.495,275.591
414.55,275.591
417.605,275.591
420.659,275.591
423.714,275.591
426.768,275.591
429.823,275.591
432.878,275.591
435.932,275.591
438.987,275.591
442.042,275.591
445.096,275.591
448.151,275.591
451.206,275.591
454.26,275.591
457.315,275.591
460.37,275.591
463.424,275.591
466.479,275.591
469.534,275.591
472.588,511.811
475.643,511.811
478.698,748.031
481.752,748.031
484.807,984.252
487.862,984.252
490.916,748.031
493.971,748.031
497.026,748.031
500.08,748.031
503.135,748.031
506.19,748.031
509.244,748.031
512.299,748.031
515.354,748.031
518.408,748.031
521.463,748.031
524.518,748.031
527.572,748.031
530.627,748.031
533.682,748.031
536.736,511.811
539.791,511.811
542.846,511.811
545.9,511.811
548.955,511.811
552.01,511.811
555.064,511.811
558.119,511.811
561.174,275.591
564.228,275.591
567.283,275.591
570.338,275.591
573.392,275.591
576.447,275.591
579.502,275.591
582.556,275.591
585.611,275.591
588.666,275.591
591.72,275.591
594.775,275.591
597.83,275.591
600.884,275.591
603.939,275.591
606.994,275.591
610.048,275.591
613.103,275.591
616.158,275.591
619.212,275.591
622.267,275.591
625.322,275.591
628.376,275.591
631.431,275.591
634.486,275.591
637.54,275.591
640.595,275.591
643.65,275.591
646.704,275.591
649.759,275.591
652.814,275.591
655.868,275.591
658.923,275.591
661.977,275.591
665.032,275.591
668.087,275.591
671.141,275.591
674.196,275.591
677.251,275.591
680.305,275.591
683.36,275.591
686.415,275.591
689.469,275.591
692.524,275.591
695.579,275.591
698.633,275.591
701.688,275.591
704.743,275.591
707.797,511.811
710.852,748.031
713.907,984.252
716.961,1456.69
720.016,2165.35
723.071,2401.57
726.125,2401.57
729.18,2401.57
732.235,2165.35
735.289,1692.91
738.344,1456.69
741.399,1220.47
744.453,984.252
747.508,748.031
750.563,511.811
753.617,275.591
756.672,275.591
759.727,275.591
762.781,275.591
765.836,275.591
768.891,275.591
771.945,275.591
775,275.591
778.055,275.591
781.109,275.591
784.164,275.591
787.219,275.591
790.273,275.591
793.328,275.591
796.383,275.591
799.437,275.591
802.492,275.591
805.547,275.591
808.601,275.591
811.656,275.591
814.711,275.591
817.765,275.591
820.82,275.591
823.875,275.591
826.929,275.591
829.984,275.591
833.039,275.591
836.093,275.591
839.148,275.591
842.203,275.591
845.257,275.591
848.312,275.591
851.367,275.591
854.421,275.591
857.476,275.591
860.531,275.591
863.585,275.591
866.64,275.591
869.695,275.591
872.749,275.591
875.804,275.591
878.859,275.591
881.913,275.591
884.968,275.591
888.023,275.591
891.077,275.591
894.132,275.591
897.186,275.591
900.241,275.591
903.296,275.591
906.35,275.591
909.405,275.591
912.46,275.591
915.514,275.591
918.569,275.591
921.624,275.591
924.678,275.591
927.733,275.591
930.788,275.591
933.842,275.591
936.897,275.591
939.952,275.591
943.006,275.591
946.061,275.591
949.116,275.591
952.17,275.591
955.225,275.591
958.28,275.591
961.334,275.591
964.389,275.591
967.444,275.591
970.498,275.591
973.553,275.591
976.608,275.591
979.662,275.591
982.717,275.591
985.772,275.591
988.826,275.591
991.881,275.591
994.936,275.591
997.99,275.591
1001.05,275.591
1004.1,275.591
1007.15,275.591
1010.21,275.591
1013.26,275.591
1016.32,275.591
1019.37,275.591
1022.43,275.591
1025.48,275.591
1028.54,275.591
1031.59,275.591
1034.65,275.591
1037.7,511.811
1040.76,511.811
1043.81,511.811
1046.86,748.031
1049.92,748.031
1052.97,984.252
1056.03,1220.47
1059.08,1456.69
1062.14,1692.91
1065.19,2165.35
1068.25,3110.24
1071.3,4055.12
1074.36,6181.1
1077.41,10669.3
1080.47,19645.7
1083.52,25787.4
1086.58,37126
1089.63,25787.4
1092.68,22007.9
1095.74,13031.5
1098.79,5708.66
1101.85,2874.02
1104.9,1692.91
1107.96,1220.47
1111.01,748.031
1114.07,511.811
1117.12,511.811
1120.18,275.591
1123.23,275.591
1126.29,275.591
1129.34,275.591
1132.4,275.591
1135.45,275.591
1138.5,275.591
1141.56,275.591
1144.61,275.591
1147.67,275.591
1150.72,275.591
1153.78,275.591
1156.83,275.591
1159.89,275.591
1162.94,275.591
1166,275.591
1169.05,275.591
1172.11,275.591
1175.16,275.591
1178.22,275.591
1181.27,275.591
1184.32,275.591
1187.38,275.591
1190.43,275.591
1193.49,275.591
1196.54,275.591
1199.6,275.591
1202.65,275.591
1205.71,275.591
1208.76,275.591
1211.82,275.591
1214.87,275.591
1217.93,275.591
1220.98,275.591
1224.04,275.591
1227.09,275.591
1230.14,275.591
1233.2,275.591
1236.25,275.591
1239.31,275.591
1242.36,275.591
1245.42,275.591
1248.47,275.591
1251.53,275.591
1254.58,275.591
1257.64,275.591
1260.69,275.591
1263.75,275.591
1266.8,275.591
1269.86,275.591
1272.91,275.591
1275.96,275.591
1279.02,275.591
1282.07,275.591
1285.13,275.591
1288.18,275.591
1291.24,275.591
1294.29,275.591
1297.35,275.591
1300.4,275.591
1303.46,275.591
1306.51,275.591
1309.57,275.591
1312.62,275.591
1315.68,275.591
1318.73,275.591
1321.78,275.591
1324.84,275.591
1327.89,275.591
1330.95,275.591
1334,275.591
1337.06,275.591
1340.11,275.591
1343.17,275.591
1346.22,275.591
1349.28,275.591
1352.33,275.591
1355.39,275.591
1358.44,275.591
1361.5,275.591
1364.55,275.591
1367.6,275.591
1370.66,275.591
1373.71,275.591
1376.77,275.591
1379.82,275.591
1382.88,275.591
1385.93,275.591
1388.99,275.591
1392.04,275.591
1395.1,275.591
1398.15,275.591
1401.21,275.591
1404.26,275.591
1407.32,275.591
1410.37,275.591
1413.42,275.591
1416.48,275.591
1419.53,275.591
1422.59,275.591
1425.64,275.591
1428.7,275.591
1431.75,275.591
1434.81,275.591
1437.86,275.591
1440.92,275.591
1443.97,275.591
1447.03,275.591
1450.08,275.591
1453.14,275.591
1456.19,275.591
1459.24,275.591
1462.3,275.591
1465.35,275.591
1468.41,275.591
1471.46,275.591
1474.52,275.591
1477.57,275.591
1480.63,275.591
1483.68,275.591
1486.74,275.591
1489.79,275.591
1492.85,275.591
1495.9,275.591
1498.95,275.591
1502.01,275.591
1505.06,275.591
1508.12,275.591
1511.17,275.591
1514.23,275.591
1517.28,275.591
1520.34,275.591
1523.39,275.591
1526.45,275.591
1529.5,275.591
1532.56,275.591
1535.61,275.591
1538.67,275.591
1541.72,275.591
1544.77,275.591
1547.83,275.591
1550.88,275.591
1553.94,275.591
1556.99,275.591
1560.05,275.591
1563.1,275.591
1566.16,275.591
1569.21,275.591
1572.27,275.591
1575.32,275.591
1578.38,275.591
1581.43,275.591
1584.49,275.591
1587.54,275.591
1590.59,275.591
1593.65,275.591
1596.7,275.591
1599.76,275.591
1602.81,275.591
1605.87,275.591
1608.92,275.591
1611.98,275.591
1615.03,275.591
1618.09,275.591
1621.14,275.591
1624.2,275.591
1627.25,275.591
1630.31,275.591
1633.36,275.591
1636.41,275.591
1639.47,275.591
1642.52,275.591
1645.58,275.591
1648.63,275.591
1651.69,275.591
1654.74,275.591
1657.8,275.591
1660.85,275.591
1663.91,275.591
1666.96,275.591
1670.02,275.591
1673.07,275.591
1676.13,275.591
1679.18,275.591
1682.23,275.591
1685.29,275.591
1688.34,275.591
1691.4,275.591
1694.45,275.591
1697.51,275.591
1700.56,275.591
1703.62,275.591
1706.67,275.591
1709.73,275.591
1712.78,275.591
1715.84,275.591
1718.89,511.811
1721.95,511.811
1725,511.811
1728.05,748.031
1731.11,511.811
1734.16,511.811
1737.22,511.811
1740.27,275.591
1743.33,275.591
1746.38,275.591
1749.44,275.591
1752.49,275.591
1755.55,275.591
1758.6,275.591
1761.66,275.591
1764.71,275.591
1767.77,275.591
1770.82,275.591
1773.87,275.591
1776.93,275.591
1779.98,275.591
1783.04,275.591
1786.09,275.591
1789.15,275.591
1792.2,275.591
1795.26,275.591
1798.31,275.591
1801.37,275.591
1804.42,275.591
1807.48,275.591
1810.53,275.591
1813.59,275.591
1816.64,275.591
1819.69,275.591
1822.75,275.591
1825.8,275.591
1828.86,275.591
1831.91,275.591
1834.97,275.591
1838.02,275.591
1841.08,275.591
1844.13,275.591
1847.19,275.591
1850.24,275.591
1853.3,275.591
1856.35,275.591
1859.41,275.591
1862.46,275.591
1865.51,275.591
1868.57,275.591
1871.62,275.591
1874.68,275.591
1877.73,275.591
1880.79,275.591
1883.84,275.591
1886.9,275.591
1889.95,275.591
1893.01,275.591
1896.06,275.591
1899.12,275.591
1902.17,275.591
1905.23,275.591
1908.28,275.591
1911.33,275.591
1914.39,275.591
1917.44,275.591
1920.5,275.591
1923.55,275.591
1926.61,275.591
1929.66,275.591
1932.72,275.591
1935.77,275.591
1938.83,275.591
1941.88,275.591
1944.94,275.591
1947.99,275.591
1951.05,275.591
1954.1,275.591
1957.15,275.591
1960.21,275.591
1963.26,275.591
1966.32,275.591
1969.37,275.591
1972.43,275.591
1975.48,275.591
1978.54,275.591
1981.59,275.591
1984.65,275.591
1987.7,275.591
1990.76,275.591
1993.81,275.591
1996.86,275.591
1999.92,275.591
2002.97,275.591
2006.03,275.591
2009.08,275.591
2012.14,275.591
2015.19,275.591
2018.25,275.591
2021.3,275.591
2024.36,275.591
2027.41,275.591
2030.47,275.591
2033.52,275.591
2036.58,275.591
2039.63,275.591
2042.68,275.591
2045.74,275.591
2048.79,275.591
2051.85,275.591
2054.9,275.591
2057.96,275.591
2061.01,275.591
2064.07,275.591
2067.12,275.591
2070.18,275.591
2073.23,275.591
2076.29,275.591
2079.34,275.591
2082.4,275.591
2085.45,275.591
2088.5,275.591
2091.56,275.591
2094.61,275.591
2097.67,275.591
2100.72,275.591
2103.78,275.591
2106.83,275.591
2109.89,275.591
2112.94,275.591
2116,275.591
2119.05,275.591
2122.11,275.591
2125.16,275.591
2128.22,275.591
2131.27,275.591
2134.32,275.591
2137.38,275.591
2140.43,275.591
2143.49,275.591
2146.54,275.591
2149.6,275.591
2152.65,275.591
2155.71,275.591
2158.76,275.591
2161.82,275.591
2164.87,275.591
2167.93,275.591
2170.98,275.591
2174.04,275.591
2177.09,275.591
2180.14,275.591
2183.2,275.591
2186.25,275.591
2189.31,275.591
2192.36,275.591
2195.42,275.591
2198.47,275.591
2201.53,275.591
2204.58,275.591
2207.64,275.591
2210.69,275.591
2213.75,275.591
2216.8,275.591
2219.86,275.591
2222.91,275.591
2225.96,275.591
2229.02,275.591
2232.07,275.591
2235.13,275.591
2238.18,275.591
2241.24,275.591
2244.29,275.591
2247.35,275.591
2250.4,275.591
2253.46,275.591
2256.51,275.591
2259.57,275.591
2262.62,275.591
2265.68,275.591
2268.73,275.591
2271.78,275.591
2274.84,275.591
2277.89,275.591
2280.95,275.591
2284,275.591
2287.06,275.591
2290.11,275.591
