,GP550R
RamanShit,Intensity
255.707,364.173
258.762,147.638
261.817,147.638
264.871,104.331
267.926,104.331
270.981,104.331
274.035,147.638
277.09,190.945
280.145,277.559
283.199,277.559
286.254,320.866
289.309,494.094
292.363,883.858
295.418,1750
298.473,3265.75
301.527,5214.57
304.582,8982.28
307.637,9242.13
310.691,6253.94
313.746,4781.5
316.801,2529.53
319.855,1403.54
322.91,883.858
325.965,624.016
329.019,537.402
332.074,450.787
335.129,364.173
338.183,320.866
341.238,277.559
344.293,234.252
347.347,190.945
350.402,147.638
353.457,147.638
356.511,147.638
359.566,147.638
362.621,147.638
365.675,147.638
368.73,147.638
371.785,147.638
374.839,147.638
377.894,147.638
380.949,277.559
384.003,450.787
387.058,667.323
390.113,450.787
393.167,407.48
396.222,407.48
399.277,364.173
402.331,407.48
405.386,450.787
408.441,494.094
411.495,710.63
414.55,927.165
417.605,1706.69
420.659,1836.61
423.714,927.165
426.768,667.323
429.823,234.252
432.878,104.331
435.932,104.331
438.987,104.331
442.042,147.638
445.096,450.787
448.151,1446.85
451.206,2183.07
454.26,3785.43
457.315,2183.07
460.37,1663.39
463.424,797.244
466.479,364.173
469.534,190.945
472.588,147.638
475.643,147.638
478.698,147.638
481.752,147.638
484.807,104.331
487.862,104.331
490.916,61.0236
493.971,61.0236
497.026,61.0236
500.08,104.331
503.135,190.945
506.19,234.252
509.244,234.252
512.299,277.559
515.354,277.559
518.408,277.559
521.463,277.559
524.518,320.866
527.572,320.866
530.627,320.866
533.682,320.866
536.736,450.787
539.791,320.866
542.846,320.866
545.9,320.866
548.955,320.866
552.01,364.173
555.064,407.48
558.119,364.173
561.174,364.173
564.228,364.173
567.283,364.173
570.338,320.866
573.392,320.866
576.447,320.866
579.502,364.173
582.556,450.787
585.611,667.323
588.666,927.165
591.72,1403.54
594.775,1490.16
597.83,1013.78
600.884,840.551
603.939,624.016
606.994,537.402
610.048,450.787
613.103,364.173
616.158,364.173
619.212,364.173
622.267,320.866
625.322,320.866
628.376,277.559
631.431,277.559
634.486,234.252
637.54,234.252
640.595,234.252
643.65,234.252
646.704,190.945
649.759,190.945
652.814,147.638
655.868,147.638
658.923,147.638
661.977,147.638
665.032,147.638
668.087,147.638
671.141,147.638
674.196,147.638
677.251,104.331
680.305,104.331
683.36,104.331
686.415,61.0236
689.469,61.0236
692.524,61.0236
695.579,61.0236
698.633,104.331
701.688,147.638
704.743,147.638
707.797,147.638
710.852,147.638
713.907,147.638
716.961,147.638
720.016,147.638
723.071,104.331
726.125,104.331
729.18,104.331
732.235,147.638
735.289,147.638
738.344,147.638
741.399,147.638
744.453,147.638
747.508,147.638
750.563,104.331
753.617,104.331
756.672,104.331
759.727,104.331
762.781,104.331
765.836,104.331
768.891,104.331
771.945,104.331
775,104.331
778.055,104.331
781.109,104.331
784.164,104.331
787.219,104.331
790.273,104.331
793.328,104.331
796.383,61.0236
799.437,61.0236
802.492,104.331
805.547,104.331
808.601,147.638
811.656,190.945
814.711,234.252
817.765,190.945
820.82,190.945
823.875,190.945
826.929,190.945
829.984,190.945
833.039,190.945
836.093,190.945
839.148,190.945
842.203,147.638
845.257,147.638
848.312,147.638
851.367,147.638
854.421,147.638
857.476,190.945
860.531,234.252
863.585,277.559
866.64,364.173
869.695,407.48
872.749,537.402
875.804,364.173
878.859,320.866
881.913,234.252
884.968,147.638
888.023,104.331
891.077,104.331
894.132,104.331
897.186,147.638
900.241,147.638
903.296,190.945
906.35,190.945
909.405,190.945
912.46,147.638
915.514,147.638
918.569,104.331
921.624,104.331
924.678,104.331
927.733,104.331
930.788,147.638
933.842,147.638
936.897,190.945
939.952,234.252
943.006,320.866
946.061,494.094
949.116,710.63
952.17,1013.78
955.225,1490.16
958.28,1750
961.334,2053.15
964.389,1750
967.444,1706.69
970.498,1446.85
973.553,970.472
976.608,667.323
979.662,450.787
982.717,320.866
985.772,277.559
988.826,190.945
991.881,147.638
994.936,104.331
997.99,61.0236
1001.05,61.0236
1004.1,61.0236
1007.15,61.0236
1010.21,104.331
1013.26,61.0236
1016.32,61.0236
1019.37,61.0236
1022.43,61.0236
1025.48,104.331
1028.54,147.638
1031.59,234.252
1034.65,277.559
1037.7,277.559
1040.76,277.559
1043.81,234.252
1046.86,147.638
1049.92,147.638
1052.97,104.331
1056.03,61.0236
1059.08,61.0236
1062.14,61.0236
1065.19,61.0236
1068.25,61.0236
1071.3,104.331
1074.36,104.331
1077.41,61.0236
1080.47,61.0236
1083.52,61.0236
1086.58,61.0236
1089.63,61.0236
1092.68,61.0236
1095.74,61.0236
1098.79,61.0236
1101.85,104.331
1104.9,104.331
1107.96,147.638
1111.01,190.945
1114.07,234.252
1117.12,277.559
1120.18,407.48
1123.23,753.937
1126.29,1576.77
1129.34,1706.69
1132.4,1013.78
1135.45,840.551
1138.5,537.402
1141.56,364.173
1144.61,277.559
1147.67,234.252
1150.72,234.252
1153.78,234.252
1156.83,234.252
1159.89,277.559
1162.94,277.559
1166,320.866
1169.05,320.866
1172.11,277.559
1175.16,234.252
1178.22,190.945
1181.27,190.945
1184.32,147.638
1187.38,147.638
1190.43,147.638
1193.49,104.331
1196.54,104.331
1199.6,104.331
1202.65,104.331
1205.71,104.331
1208.76,104.331
1211.82,147.638
1214.87,147.638
1217.93,190.945
1220.98,190.945
1224.04,190.945
1227.09,147.638
1230.14,147.638
1233.2,104.331
1236.25,104.331
1239.31,104.331
1242.36,104.331
1245.42,104.331
1248.47,104.331
1251.53,104.331
1254.58,104.331
1257.64,104.331
1260.69,61.0236
1263.75,61.0236
1266.8,61.0236
1269.86,61.0236
1272.91,104.331
1275.96,104.331
1279.02,104.331
1282.07,104.331
1285.13,104.331
1288.18,61.0236
1291.24,61.0236
1294.29,61.0236
1297.35,61.0236
1300.4,61.0236
1303.46,61.0236
1306.51,61.0236
1309.57,61.0236
1312.62,61.0236
1315.68,61.0236
1318.73,61.0236
1321.78,61.0236
1324.84,61.0236
1327.89,61.0236
1330.95,104.331
1334,190.945
1337.06,234.252
1340.11,234.252
1343.17,234.252
1346.22,234.252
1349.28,234.252
1352.33,234.252
1355.39,190.945
1358.44,190.945
1361.5,147.638
1364.55,147.638
1367.6,147.638
1370.66,104.331
1373.71,104.331
1376.77,61.0236
1379.82,61.0236
1382.88,61.0236
1385.93,61.0236
1388.99,61.0236
1392.04,61.0236
1395.1,61.0236
1398.15,61.0236
1401.21,61.0236
1404.26,61.0236
1407.32,61.0236
1410.37,104.331
1413.42,104.331
1416.48,61.0236
1419.53,61.0236
1422.59,61.0236
1425.64,61.0236
1428.7,61.0236
1431.75,61.0236
1434.81,61.0236
1437.86,61.0236
1440.92,61.0236
1443.97,61.0236
1447.03,61.0236
1450.08,61.0236
1453.14,61.0236
1456.19,61.0236
1459.24,61.0236
1462.3,61.0236
1465.35,61.0236
1468.41,61.0236
1471.46,61.0236
1474.52,61.0236
1477.57,61.0236
1480.63,61.0236
1483.68,61.0236
1486.74,61.0236
1489.79,61.0236
1492.85,104.331
1495.9,104.331
1498.95,104.331
1502.01,61.0236
1505.06,61.0236
1508.12,61.0236
1511.17,61.0236
1514.23,61.0236
1517.28,61.0236
1520.34,61.0236
1523.39,61.0236
1526.45,61.0236
1529.5,61.0236
1532.56,61.0236
1535.61,61.0236
1538.67,61.0236
1541.72,61.0236
1544.77,61.0236
1547.83,61.0236
1550.88,61.0236
1553.94,104.331
1556.99,104.331
1560.05,104.331
1563.1,104.331
1566.16,104.331
1569.21,104.331
1572.27,104.331
1575.32,104.331
1578.38,61.0236
1581.43,61.0236
1584.49,61.0236
1587.54,61.0236
1590.59,61.0236
1593.65,61.0236
1596.7,61.0236
1599.76,61.0236
1602.81,61.0236
1605.87,104.331
1608.92,104.331
1611.98,61.0236
1615.03,61.0236
1618.09,61.0236
1621.14,61.0236
1624.2,61.0236
1627.25,61.0236
1630.31,61.0236
1633.36,61.0236
1636.41,61.0236
1639.47,61.0236
1642.52,61.0236
1645.58,61.0236
1648.63,61.0236
1651.69,61.0236
1654.74,61.0236
1657.8,61.0236
1660.85,61.0236
1663.91,61.0236
1666.96,61.0236
1670.02,61.0236
1673.07,104.331
1676.13,61.0236
1679.18,61.0236
1682.23,61.0236
1685.29,61.0236
1688.34,61.0236
1691.4,61.0236
1694.45,61.0236
1697.51,61.0236
1700.56,61.0236
1703.62,61.0236
1706.67,61.0236
1709.73,61.0236
1712.78,61.0236
1715.84,61.0236
1718.89,61.0236
1721.95,61.0236
1725,61.0236
1728.05,61.0236
1731.11,61.0236
1734.16,104.331
1737.22,61.0236
1740.27,61.0236
1743.33,61.0236
1746.38,61.0236
1749.44,61.0236
1752.49,61.0236
1755.55,61.0236
1758.6,61.0236
1761.66,61.0236
1764.71,61.0236
1767.77,104.331
1770.82,104.331
1773.87,104.331
1776.93,104.331
1779.98,104.331
1783.04,61.0236
1786.09,61.0236
1789.15,61.0236
1792.2,61.0236
1795.26,61.0236
1798.31,61.0236
1801.37,61.0236
1804.42,61.0236
1807.48,104.331
1810.53,104.331
1813.59,61.0236
1816.64,61.0236
1819.69,61.0236
1822.75,61.0236
1825.8,61.0236
1828.86,61.0236
1831.91,61.0236
1834.97,61.0236
1838.02,61.0236
1841.08,61.0236
1844.13,61.0236
1847.19,61.0236
1850.24,61.0236
1853.3,61.0236
1856.35,61.0236
1859.41,61.0236
1862.46,61.0236
1865.51,61.0236
1868.57,61.0236
1871.62,61.0236
1874.68,61.0236
1877.73,61.0236
1880.79,61.0236
1883.84,61.0236
1886.9,61.0236
1889.95,61.0236
1893.01,61.0236
1896.06,61.0236
1899.12,61.0236
1902.17,61.0236
1905.23,61.0236
1908.28,61.0236
1911.33,61.0236
1914.39,61.0236
1917.44,61.0236
1920.5,61.0236
1923.55,61.0236
1926.61,61.0236
1929.66,61.0236
1932.72,61.0236
1935.77,61.0236
1938.83,61.0236
1941.88,61.0236
1944.94,61.0236
1947.99,61.0236
1951.05,61.0236
1954.1,61.0236
1957.15,61.0236
1960.21,61.0236
1963.26,61.0236
1966.32,61.0236
1969.37,61.0236
1972.43,61.0236
1975.48,61.0236
1978.54,61.0236
1981.59,61.0236
1984.65,61.0236
1987.7,61.0236
1990.76,61.0236
1993.81,61.0236
1996.86,61.0236
1999.92,61.0236
2002.97,61.0236
2006.03,61.0236
2009.08,61.0236
2012.14,61.0236
2015.19,61.0236
2018.25,61.0236
2021.3,61.0236
2024.36,61.0236
2027.41,61.0236
2030.47,61.0236
2033.52,61.0236
2036.58,61.0236
2039.63,61.0236
2042.68,61.0236
2045.74,61.0236
2048.79,61.0236
2051.85,61.0236
2054.9,61.0236
2057.96,61.0236
2061.01,61.0236
2064.07,61.0236
2067.12,61.0236
2070.18,61.0236
2073.23,61.0236
2076.29,61.0236
2079.34,61.0236
2082.4,61.0236
2085.45,61.0236
2088.5,61.0236
2091.56,61.0236
2094.61,61.0236
2097.67,61.0236
2100.72,61.0236
2103.78,61.0236
2106.83,61.0236
2109.89,61.0236
2112.94,61.0236
2116,61.0236
2119.05,61.0236
2122.11,61.0236
2125.16,61.0236
2128.22,61.0236
2131.27,61.0236
2134.32,61.0236
2137.38,61.0236
2140.43,61.0236
2143.49,61.0236
2146.54,61.0236
2149.6,61.0236
2152.65,61.0236
2155.71,61.0236
2158.76,61.0236
2161.82,61.0236
2164.87,61.0236
2167.93,61.0236
2170.98,61.0236
2174.04,61.0236
2177.09,61.0236
2180.14,61.0236
2183.2,61.0236
2186.25,61.0236
2189.31,61.0236
2192.36,61.0236
2195.42,61.0236
2198.47,61.0236
2201.53,61.0236
2204.58,61.0236
2207.64,61.0236
2210.69,61.0236
2213.75,61.0236
2216.8,61.0236
2219.86,61.0236
2222.91,61.0236
2225.96,104.331
2229.02,61.0236
2232.07,61.0236
2235.13,61.0236
2238.18,61.0236
2241.24,61.0236
2244.29,61.0236
2247.35,61.0236
2250.4,61.0236
2253.46,61.0236
2256.51,61.0236
2259.57,61.0236
2262.62,61.0236
2265.68,61.0236
2268.73,61.0236
2271.78,61.0236
2274.84,61.0236
2277.89,61.0236
2280.95,61.0236
2284,61.0236
2287.06,61.0236
