,GP550R
RamanShit,Intensity
261.817,110.236
264.871,110.236
267.926,110.236
270.981,110.236
274.035,110.236
277.09,173.228
280.145,236.22
283.199,236.22
286.254,299.213
289.309,362.205
292.363,425.197
295.418,425.197
298.473,425.197
301.527,488.189
304.582,551.181
307.637,677.165
310.691,866.142
313.746,866.142
316.801,866.142
319.855,866.142
322.91,866.142
325.965,866.142
329.019,929.134
332.074,1118.11
335.129,1559.06
338.183,2251.97
341.238,2629.92
344.293,3007.87
347.347,2629.92
350.402,2377.95
353.457,1811.02
356.511,1433.07
359.566,1307.09
362.621,1433.07
365.675,1433.07
368.73,1559.06
371.785,1370.08
374.839,1244.09
377.894,866.142
380.949,551.181
384.003,425.197
387.058,299.213
390.113,173.228
393.167,110.236
396.222,110.236
399.277,110.236
402.331,110.236
405.386,173.228
408.441,173.228
411.495,236.22
414.55,236.22
417.605,173.228
420.659,173.228
423.714,110.236
426.768,110.236
429.823,110.236
432.878,110.236
435.932,110.236
438.987,110.236
442.042,110.236
445.096,110.236
448.151,110.236
451.206,110.236
454.26,110.236
457.315,173.228
460.37,236.22
463.424,299.213
466.479,488.189
469.534,614.173
472.588,740.157
475.643,803.15
478.698,992.126
481.752,1181.1
484.807,1181.1
487.862,1181.1
490.916,1118.11
493.971,992.126
497.026,992.126
500.08,929.134
503.135,803.15
506.19,677.165
509.244,488.189
512.299,362.205
515.354,299.213
518.408,299.213
521.463,299.213
524.518,299.213
527.572,299.213
530.627,299.213
533.682,425.197
536.736,614.173
539.791,740.157
542.846,866.142
545.9,1055.12
548.955,1307.09
552.01,1055.12
555.064,992.126
558.119,803.15
561.174,551.181
564.228,425.197
567.283,362.205
570.338,299.213
573.392,236.22
576.447,236.22
579.502,173.228
582.556,173.228
585.611,173.228
588.666,173.228
591.72,236.22
594.775,236.22
597.83,236.22
600.884,236.22
603.939,299.213
606.994,299.213
610.048,362.205
613.103,362.205
616.158,425.197
619.212,488.189
622.267,488.189
625.322,551.181
628.376,551.181
631.431,488.189
634.486,488.189
637.54,488.189
640.595,425.197
643.65,362.205
646.704,299.213
649.759,299.213
652.814,236.22
655.868,236.22
658.923,173.228
661.977,173.228
665.032,173.228
668.087,173.228
671.141,110.236
674.196,110.236
677.251,110.236
680.305,110.236
683.36,110.236
686.415,110.236
689.469,110.236
692.524,110.236
695.579,110.236
698.633,110.236
701.688,110.236
704.743,110.236
707.797,110.236
710.852,173.228
713.907,173.228
716.961,173.228
720.016,173.228
723.071,173.228
726.125,173.228
729.18,173.228
732.235,173.228
735.289,173.228
738.344,173.228
741.399,173.228
744.453,110.236
747.508,110.236
750.563,110.236
753.617,110.236
756.672,110.236
759.727,110.236
762.781,110.236
765.836,110.236
768.891,110.236
771.945,110.236
775,110.236
778.055,110.236
781.109,110.236
784.164,110.236
787.219,110.236
790.273,110.236
793.328,110.236
796.383,110.236
799.437,110.236
802.492,110.236
805.547,110.236
808.601,110.236
811.656,110.236
814.711,173.228
817.765,110.236
820.82,110.236
823.875,110.236
826.929,173.228
829.984,236.22
833.039,299.213
836.093,362.205
839.148,425.197
842.203,614.173
845.257,803.15
848.312,929.134
851.367,929.134
854.421,866.142
857.476,803.15
860.531,614.173
863.585,551.181
866.64,488.189
869.695,551.181
872.749,614.173
875.804,740.157
878.859,929.134
881.913,1118.11
884.968,1307.09
888.023,1559.06
891.077,2000
894.132,2881.89
897.186,4456.69
900.241,6850.39
903.296,8362.2
906.35,10440.9
909.405,8362.2
912.46,7795.28
915.514,5968.5
918.569,3826.77
921.624,2440.94
924.678,1622.05
927.733,1055.12
930.788,740.157
933.842,488.189
936.897,362.205
939.952,236.22
943.006,236.22
946.061,173.228
949.116,173.228
952.17,110.236
955.225,110.236
958.28,110.236
961.334,110.236
964.389,110.236
967.444,110.236
970.498,110.236
973.553,110.236
976.608,110.236
979.662,110.236
982.717,110.236
985.772,110.236
988.826,110.236
991.881,110.236
994.936,110.236
997.99,110.236
1001.05,173.228
1004.1,173.228
1007.15,236.22
1010.21,236.22
1013.26,236.22
1016.32,362.205
1019.37,425.197
1022.43,551.181
1025.48,677.165
1028.54,677.165
1031.59,677.165
1034.65,551.181
1037.7,425.197
1040.76,362.205
1043.81,236.22
1046.86,173.228
1049.92,173.228
1052.97,173.228
1056.03,173.228
1059.08,173.228
1062.14,173.228
1065.19,173.228
1068.25,173.228
1071.3,173.228
1074.36,110.236
1077.41,110.236
1080.47,47.2441
1083.52,47.2441
1086.58,47.2441
1089.63,47.2441
1092.68,110.236
1095.74,110.236
1098.79,173.228
1101.85,236.22
1104.9,236.22
1107.96,173.228
1111.01,173.228
1114.07,173.228
1117.12,110.236
1120.18,110.236
1123.23,110.236
1126.29,236.22
1129.34,299.213
1132.4,425.197
1135.45,551.181
1138.5,803.15
1141.56,992.126
1144.61,1181.1
1147.67,1307.09
1150.72,1433.07
1153.78,1559.06
1156.83,1748.03
1159.89,2000
1162.94,2251.97
1166,2314.96
1169.05,2440.94
1172.11,2251.97
1175.16,2062.99
1178.22,1622.05
1181.27,1244.09
1184.32,803.15
1187.38,551.181
1190.43,425.197
1193.49,299.213
1196.54,236.22
1199.6,236.22
1202.65,236.22
1205.71,299.213
1208.76,362.205
1211.82,488.189
1214.87,740.157
1217.93,929.134
1220.98,992.126
1224.04,1055.12
1227.09,1055.12
1230.14,992.126
1233.2,929.134
1236.25,803.15
1239.31,740.157
1242.36,614.173
1245.42,488.189
1248.47,362.205
1251.53,362.205
1254.58,236.22
1257.64,236.22
1260.69,236.22
1263.75,236.22
1266.8,299.213
1269.86,362.205
1272.91,551.181
1275.96,740.157
1279.02,866.142
1282.07,866.142
1285.13,929.134
1288.18,803.15
1291.24,740.157
1294.29,488.189
1297.35,362.205
1300.4,362.205
1303.46,362.205
1306.51,362.205
1309.57,362.205
1312.62,362.205
1315.68,362.205
1318.73,362.205
1321.78,425.197
1324.84,488.189
1327.89,614.173
1330.95,866.142
1334,1118.11
1337.06,1433.07
1340.11,1811.02
1343.17,2000
1346.22,2125.98
1349.28,2000
1352.33,1937.01
1355.39,1685.04
1358.44,1370.08
1361.5,1181.1
1364.55,992.126
1367.6,803.15
1370.66,614.173
1373.71,488.189
1376.77,425.197
1379.82,299.213
1382.88,236.22
1385.93,236.22
1388.99,236.22
1392.04,236.22
1395.1,299.213
1398.15,425.197
1401.21,488.189
1404.26,551.181
1407.32,614.173
1410.37,614.173
1413.42,551.181
1416.48,488.189
1419.53,362.205
1422.59,236.22
1425.64,173.228
1428.7,110.236
1431.75,110.236
1434.81,110.236
1437.86,110.236
1440.92,110.236
1443.97,110.236
1447.03,110.236
1450.08,110.236
1453.14,47.2441
1456.19,47.2441
1459.24,47.2441
1462.3,47.2441
1465.35,47.2441
1468.41,47.2441
1471.46,110.236
1474.52,173.228
1477.57,173.228
1480.63,236.22
1483.68,236.22
1486.74,299.213
1489.79,299.213
1492.85,299.213
1495.9,299.213
1498.95,236.22
1502.01,236.22
1505.06,236.22
1508.12,236.22
1511.17,236.22
1514.23,236.22
1517.28,236.22
1520.34,236.22
1523.39,173.228
1526.45,173.228
1529.5,173.228
1532.56,173.228
1535.61,173.228
1538.67,236.22
1541.72,299.213
1544.77,299.213
1547.83,362.205
1550.88,488.189
1553.94,551.181
1556.99,614.173
1560.05,677.165
1563.1,740.157
1566.16,866.142
1569.21,929.134
1572.27,929.134
1575.32,929.134
1578.38,866.142
1581.43,803.15
1584.49,803.15
1587.54,803.15
1590.59,803.15
1593.65,803.15
1596.7,803.15
1599.76,866.142
1602.81,929.134
1605.87,929.134
1608.92,929.134
1611.98,866.142
1615.03,740.157
1618.09,488.189
1621.14,362.205
1624.2,299.213
1627.25,236.22
1630.31,173.228
1633.36,110.236
1636.41,110.236
1639.47,110.236
1642.52,110.236
1645.58,110.236
1648.63,110.236
1651.69,110.236
1654.74,110.236
1657.8,110.236
1660.85,110.236
1663.91,110.236
1666.96,110.236
1670.02,110.236
1673.07,110.236
1676.13,110.236
1679.18,110.236
1682.23,110.236
1685.29,110.236
1688.34,110.236
1691.4,173.228
1694.45,173.228
1697.51,173.228
1700.56,173.228
1703.62,173.228
1706.67,173.228
1709.73,173.228
1712.78,173.228
1715.84,110.236
1718.89,110.236
1721.95,110.236
1725,110.236
1728.05,110.236
1731.11,110.236
1734.16,173.228
1737.22,110.236
1740.27,110.236
1743.33,110.236
1746.38,110.236
1749.44,110.236
1752.49,110.236
1755.55,110.236
1758.6,110.236
1761.66,173.228
1764.71,173.228
1767.77,236.22
1770.82,236.22
1773.87,236.22
1776.93,236.22
1779.98,236.22
1783.04,236.22
1786.09,236.22
1789.15,236.22
1792.2,236.22
1795.26,236.22
1798.31,236.22
1801.37,236.22
1804.42,236.22
1807.48,236.22
1810.53,299.213
1813.59,299.213
1816.64,299.213
1819.69,299.213
1822.75,299.213
1825.8,299.213
1828.86,299.213
1831.91,299.213
1834.97,299.213
1838.02,299.213
1841.08,299.213
1844.13,299.213
1847.19,299.213
1850.24,299.213
1853.3,236.22
1856.35,236.22
1859.41,236.22
1862.46,236.22
1865.51,299.213
1868.57,299.213
1871.62,362.205
1874.68,362.205
1877.73,299.213
1880.79,299.213
1883.84,236.22
1886.9,236.22
1889.95,236.22
1893.01,236.22
1896.06,236.22
1899.12,236.22
1902.17,236.22
1905.23,236.22
1908.28,236.22
1911.33,299.213
1914.39,299.213
1917.44,299.213
1920.5,299.213
1923.55,299.213
1926.61,299.213
1929.66,299.213
1932.72,299.213
1935.77,236.22
1938.83,236.22
1941.88,236.22
1944.94,236.22
1947.99,173.228
1951.05,173.228
1954.1,173.228
1957.15,173.228
1960.21,236.22
1963.26,236.22
1966.32,173.228
1969.37,173.228
1972.43,173.228
1975.48,173.228
1978.54,110.236
1981.59,110.236
1984.65,110.236
1987.7,173.228
1990.76,110.236
1993.81,110.236
1996.86,110.236
1999.92,110.236
2002.97,110.236
2006.03,110.236
2009.08,110.236
2012.14,110.236
2015.19,110.236
2018.25,173.228
2021.3,110.236
2024.36,110.236
2027.41,110.236
2030.47,110.236
2033.52,110.236
2036.58,110.236
2039.63,110.236
2042.68,110.236
2045.74,173.228
2048.79,173.228
2051.85,236.22
2054.9,236.22
2057.96,236.22
2061.01,173.228
2064.07,173.228
2067.12,173.228
2070.18,173.228
2073.23,173.228
2076.29,173.228
2079.34,173.228
2082.4,173.228
2085.45,236.22
2088.5,236.22
2091.56,173.228
2094.61,173.228
2097.67,173.228
2100.72,173.228
2103.78,236.22
2106.83,236.22
2109.89,236.22
2112.94,236.22
2116,236.22
2119.05,236.22
2122.11,299.213
2125.16,299.213
2128.22,299.213
2131.27,299.213
2134.32,236.22
2137.38,236.22
2140.43,236.22
2143.49,236.22
2146.54,173.228
2149.6,173.228
2152.65,110.236
2155.71,110.236
2158.76,110.236
2161.82,110.236
2164.87,110.236
2167.93,110.236
2170.98,110.236
2174.04,173.228
2177.09,236.22
2180.14,173.228
2183.2,173.228
2186.25,173.228
2189.31,173.228
2192.36,173.228
2195.42,110.236
2198.47,110.236
2201.53,173.228
2204.58,173.228
2207.64,173.228
2210.69,236.22
2213.75,299.213
2216.8,299.213
2219.86,299.213
2222.91,299.213
2225.96,299.213
2229.02,236.22
2232.07,236.22
2235.13,236.22
2238.18,236.22
2241.24,236.22
2244.29,236.22
2247.35,299.213
2250.4,299.213
2253.46,236.22
2256.51,173.228
2259.57,173.228
2262.62,173.228
2265.68,173.228
2268.73,173.228
2271.78,173.228
2274.84,173.228
2277.89,173.228
2280.95,173.228
2284,173.228
2287.06,110.236
2290.11,299.213
