,GP550R
RamanShit,Intensity
264.871,470.588
267.926,470.588
270.981,470.588
274.035,470.588
277.09,470.588
280.145,470.588
283.199,470.588
286.254,470.588
289.309,470.588
292.363,470.588
295.418,470.588
298.473,470.588
301.527,470.588
304.582,470.588
307.637,470.588
310.691,705.882
313.746,705.882
316.801,941.176
319.855,941.176
322.91,1176.47
325.965,1411.76
329.019,1411.76
332.074,1647.06
335.129,1647.06
338.183,1411.76
341.238,1411.76
344.293,1176.47
347.347,941.176
350.402,941.176
353.457,705.882
356.511,705.882
359.566,470.588
362.621,470.588
365.675,470.588
368.73,470.588
371.785,470.588
374.839,470.588
377.894,470.588
380.949,470.588
384.003,470.588
387.058,470.588
390.113,470.588
393.167,470.588
396.222,470.588
399.277,470.588
402.331,470.588
405.386,470.588
408.441,470.588
411.495,470.588
414.55,470.588
417.605,470.588
420.659,470.588
423.714,705.882
426.768,705.882
429.823,705.882
432.878,705.882
435.932,705.882
438.987,705.882
442.042,705.882
445.096,705.882
448.151,705.882
451.206,705.882
454.26,705.882
457.315,705.882
460.37,705.882
463.424,705.882
466.479,941.176
469.534,705.882
472.588,705.882
475.643,705.882
478.698,470.588
481.752,470.588
484.807,470.588
487.862,470.588
490.916,470.588
493.971,470.588
497.026,470.588
500.08,470.588
503.135,470.588
506.19,470.588
509.244,470.588
512.299,470.588
515.354,470.588
518.408,470.588
521.463,470.588
524.518,470.588
527.572,470.588
530.627,470.588
533.682,705.882
536.736,705.882
539.791,705.882
542.846,705.882
545.9,705.882
548.955,705.882
552.01,705.882
555.064,705.882
558.119,705.882
561.174,705.882
564.228,705.882
567.283,705.882
570.338,705.882
573.392,705.882
576.447,705.882
579.502,705.882
582.556,705.882
585.611,705.882
588.666,705.882
591.72,941.176
594.775,941.176
597.83,1176.47
600.884,1411.76
603.939,1411.76
606.994,1411.76
610.048,1411.76
613.103,1411.76
616.158,1176.47
619.212,1176.47
622.267,941.176
625.322,941.176
628.376,941.176
631.431,705.882
634.486,705.882
637.54,705.882
640.595,470.588
643.65,470.588
646.704,470.588
649.759,470.588
652.814,470.588
655.868,470.588
658.923,470.588
661.977,470.588
665.032,470.588
668.087,470.588
671.141,470.588
674.196,470.588
677.251,470.588
680.305,470.588
683.36,470.588
686.415,470.588
689.469,470.588
692.524,470.588
695.579,470.588
698.633,470.588
701.688,470.588
704.743,470.588
707.797,470.588
710.852,470.588
713.907,470.588
716.961,470.588
720.016,470.588
723.071,470.588
726.125,470.588
729.18,470.588
732.235,470.588
735.289,470.588
738.344,470.588
741.399,470.588
744.453,470.588
747.508,470.588
750.563,470.588
753.617,470.588
756.672,470.588
759.727,470.588
762.781,470.588
765.836,470.588
768.891,470.588
771.945,470.588
775,470.588
778.055,470.588
781.109,470.588
784.164,470.588
787.219,470.588
790.273,470.588
793.328,470.588
796.383,470.588
799.437,470.588
802.492,470.588
805.547,470.588
808.601,470.588
811.656,470.588
814.711,470.588
817.765,470.588
820.82,470.588
823.875,470.588
826.929,470.588
829.984,470.588
833.039,470.588
836.093,470.588
839.148,470.588
842.203,470.588
845.257,470.588
848.312,470.588
851.367,470.588
854.421,470.588
857.476,470.588
860.531,470.588
863.585,470.588
866.64,470.588
869.695,470.588
872.749,470.588
875.804,470.588
878.859,470.588
881.913,470.588
884.968,470.588
888.023,470.588
891.077,470.588
894.132,470.588
897.186,470.588
900.241,470.588
903.296,470.588
906.35,470.588
909.405,470.588
912.46,470.588
915.514,470.588
918.569,470.588
921.624,470.588
924.678,470.588
927.733,470.588
930.788,470.588
933.842,470.588
936.897,470.588
939.952,470.588
943.006,470.588
946.061,470.588
949.116,470.588
952.17,470.588
955.225,470.588
958.28,470.588
961.334,470.588
964.389,470.588
967.444,470.588
970.498,470.588
973.553,470.588
976.608,470.588
979.662,470.588
982.717,470.588
985.772,470.588
988.826,470.588
991.881,470.588
994.936,470.588
997.99,705.882
1001.05,705.882
1004.1,941.176
1007.15,1176.47
1010.21,1647.06
1013.26,1882.35
1016.32,2588.24
1019.37,3058.82
1022.43,3764.71
1025.48,4235.29
1028.54,4941.18
1031.59,5176.47
1034.65,5176.47
1037.7,5411.76
1040.76,5411.76
1043.81,5176.47
1046.86,5176.47
1049.92,4941.18
1052.97,4470.59
1056.03,4235.29
1059.08,3764.71
1062.14,3529.41
1065.19,3058.82
1068.25,2823.53
1071.3,2588.24
1074.36,2117.65
1077.41,1882.35
1080.47,1647.06
1083.52,1411.76
1086.58,1176.47
1089.63,1176.47
1092.68,941.176
1095.74,705.882
1098.79,705.882
1101.85,705.882
1104.9,470.588
1107.96,470.588
1111.01,470.588
1114.07,470.588
1117.12,470.588
1120.18,470.588
1123.23,470.588
1126.29,470.588
1129.34,470.588
1132.4,470.588
1135.45,470.588
1138.5,470.588
1141.56,470.588
1144.61,470.588
1147.67,470.588
1150.72,470.588
1153.78,470.588
1156.83,470.588
1159.89,470.588
1162.94,470.588
1166,470.588
1169.05,470.588
1172.11,470.588
1175.16,470.588
1178.22,470.588
1181.27,470.588
1184.32,470.588
1187.38,470.588
1190.43,470.588
1193.49,470.588
1196.54,470.588
1199.6,470.588
1202.65,470.588
1205.71,470.588
1208.76,470.588
1211.82,470.588
1214.87,470.588
1217.93,470.588
1220.98,470.588
1224.04,705.882
1227.09,705.882
1230.14,941.176
1233.2,1176.47
1236.25,1411.76
1239.31,1647.06
1242.36,2117.65
1245.42,2588.24
1248.47,3058.82
1251.53,3764.71
1254.58,4235.29
1257.64,4705.88
1260.69,5176.47
1263.75,5176.47
1266.8,5411.76
1269.86,5411.76
1272.91,5176.47
1275.96,5176.47
1279.02,4705.88
1282.07,4000
1285.13,3529.41
1288.18,3058.82
1291.24,2588.24
1294.29,2117.65
1297.35,1882.35
1300.4,1411.76
1303.46,1176.47
1306.51,941.176
1309.57,705.882
1312.62,470.588
1315.68,470.588
1318.73,470.588
1321.78,470.588
1324.84,470.588
1327.89,470.588
1330.95,470.588
1334,705.882
1337.06,705.882
1340.11,705.882
1343.17,941.176
1346.22,941.176
1349.28,941.176
1352.33,1176.47
1355.39,1411.76
1358.44,1647.06
1361.5,2117.65
1364.55,2823.53
1367.6,4470.59
1370.66,7058.82
1373.71,10352.9
1376.77,14823.5
1379.82,20941.2
1382.88,29647.1
1385.93,34588.2
1388.99,39294.1
1392.04,34588.2
1395.1,32235.3
1398.15,25647.1
1401.21,17647.1
1404.26,11764.7
1407.32,7764.71
1410.37,4941.18
1413.42,3294.12
1416.48,2352.94
1419.53,1882.35
1422.59,1411.76
1425.64,1176.47
1428.7,941.176
1431.75,941.176
1434.81,941.176
1437.86,941.176
1440.92,941.176
1443.97,705.882
1447.03,705.882
1450.08,470.588
1453.14,470.588
1456.19,470.588
1459.24,470.588
1462.3,470.588
1465.35,470.588
1468.41,470.588
1471.46,470.588
1474.52,470.588
1477.57,470.588
1480.63,470.588
1483.68,470.588
1486.74,470.588
1489.79,470.588
1492.85,470.588
1495.9,470.588
1498.95,470.588
1502.01,470.588
1505.06,470.588
1508.12,470.588
1511.17,470.588
1514.23,470.588
1517.28,235.294
1520.34,235.294
1523.39,235.294
1526.45,235.294
1529.5,470.588
1532.56,470.588
1535.61,705.882
1538.67,941.176
1541.72,1411.76
1544.77,1882.35
1547.83,2588.24
1550.88,3764.71
1553.94,4941.18
1556.99,6117.65
1560.05,7294.12
1563.1,8705.88
1566.16,10117.6
1569.21,11294.1
1572.27,12235.3
1575.32,12705.9
1578.38,12705.9
1581.43,12470.6
1584.49,12235.3
1587.54,11764.7
1590.59,11529.4
1593.65,11529.4
1596.7,11529.4
1599.76,11764.7
1602.81,12235.3
1605.87,12705.9
1608.92,12941.2
1611.98,13647.1
1615.03,14117.6
1618.09,14823.5
1621.14,15294.1
1624.2,15529.4
1627.25,15058.8
1630.31,14588.2
1633.36,12470.6
1636.41,10117.6
1639.47,7764.71
1642.52,5411.76
1645.58,3764.71
1648.63,2352.94
1651.69,1411.76
1654.74,941.176
1657.8,705.882
1660.85,705.882
1663.91,705.882
1666.96,941.176
1670.02,1411.76
1673.07,1647.06
1676.13,2117.65
1679.18,2352.94
1682.23,2823.53
1685.29,3294.12
1688.34,3764.71
1691.4,4235.29
1694.45,5176.47
1697.51,5882.35
1700.56,6588.24
1703.62,7529.41
1706.67,8235.29
1709.73,8941.18
1712.78,9647.06
1715.84,9882.35
1718.89,9882.35
1721.95,9882.35
1725,9647.06
1728.05,9411.76
1731.11,8705.88
1734.16,8235.29
1737.22,7529.41
1740.27,6823.53
1743.33,6117.65
1746.38,5647.06
1749.44,5176.47
1752.49,4705.88
1755.55,4235.29
1758.6,3529.41
1761.66,3058.82
1764.71,2588.24
1767.77,2117.65
1770.82,1647.06
1773.87,1411.76
1776.93,941.176
1779.98,705.882
1783.04,705.882
1786.09,470.588
1789.15,470.588
1792.2,470.588
1795.26,470.588
1798.31,470.588
1801.37,470.588
1804.42,470.588
1807.48,470.588
1810.53,470.588
1813.59,470.588
1816.64,470.588
1819.69,470.588
1822.75,470.588
1825.8,470.588
1828.86,470.588
1831.91,470.588
1834.97,470.588
1838.02,470.588
1841.08,470.588
1844.13,470.588
1847.19,470.588
1850.24,470.588
1853.3,470.588
1856.35,470.588
1859.41,470.588
1862.46,470.588
1865.51,470.588
1868.57,705.882
1871.62,941.176
1874.68,1176.47
1877.73,1411.76
1880.79,1882.35
1883.84,2117.65
1886.9,2588.24
1889.95,3058.82
1893.01,3529.41
1896.06,4235.29
1899.12,4941.18
1902.17,5647.06
1905.23,6588.24
1908.28,7529.41
1911.33,8470.59
1914.39,9647.06
1917.44,10352.9
1920.5,11294.1
1923.55,12000
1926.61,12235.3
1929.66,12470.6
1932.72,12470.6
1935.77,12235.3
1938.83,11764.7
1941.88,11058.8
1944.94,9882.35
1947.99,8941.18
1951.05,7764.71
1954.1,6588.24
1957.15,5647.06
1960.21,4705.88
1963.26,3764.71
1966.32,2823.53
1969.37,2117.65
1972.43,1647.06
1975.48,1176.47
1978.54,941.176
1981.59,705.882
1984.65,470.588
1987.7,470.588
1990.76,470.588
1993.81,470.588
1996.86,470.588
1999.92,470.588
2002.97,705.882
2006.03,941.176
2009.08,1176.47
2012.14,1411.76
2015.19,1882.35
2018.25,2352.94
2021.3,3058.82
2024.36,3529.41
2027.41,4235.29
2030.47,4941.18
2033.52,5647.06
2036.58,6117.65
2039.63,6588.24
2042.68,6823.53
2045.74,7058.82
2048.79,7529.41
2051.85,7764.71
2054.9,8470.59
2057.96,9176.47
2061.01,10352.9
2064.07,11764.7
2067.12,13176.5
2070.18,14823.5
2073.23,16000
2076.29,16470.6
2079.34,16705.9
2082.4,16235.3
2085.45,15764.7
2088.5,14117.6
2091.56,11764.7
2094.61,9176.47
2097.67,7294.12
2100.72,5411.76
2103.78,4000
2106.83,3058.82
2109.89,2117.65
2112.94,1647.06
2116,1176.47
2119.05,941.176
2122.11,705.882
2125.16,470.588
2128.22,470.588
2131.27,470.588
2134.32,470.588
2137.38,470.588
2140.43,470.588
2143.49,470.588
2146.54,470.588
2149.6,470.588
2152.65,470.588
2155.71,470.588
2158.76,470.588
2161.82,470.588
2164.87,470.588
2167.93,470.588
2170.98,470.588
2174.04,470.588
2177.09,470.588
2180.14,470.588
2183.2,470.588
2186.25,470.588
2189.31,470.588
2192.36,470.588
2195.42,470.588
2198.47,470.588
2201.53,470.588
2204.58,470.588
2207.64,470.588
2210.69,470.588
2213.75,470.588
2216.8,470.588
2219.86,470.588
2222.91,470.588
2225.96,470.588
2229.02,470.588
2232.07,470.588
2235.13,470.588
2238.18,470.588
2241.24,470.588
2244.29,470.588
2247.35,470.588
2250.4,470.588
2253.46,470.588
2256.51,470.588
2259.57,470.588
2262.62,470.588
2265.68,470.588
2268.73,470.588
2271.78,470.588
2274.84,470.588
2277.89,470.588
2280.95,470.588
2284,470.588
2287.06,470.588
2290.11,470.588
