,GP550R
RamanShit,Intensity
267.926,274.51
270.981,117.647
274.035,117.647
277.09,117.647
280.145,117.647
283.199,431.373
286.254,745.098
289.309,1843.14
292.363,3725.49
295.418,7490.2
298.473,12980.4
301.527,16274.5
304.582,20352.9
307.637,16274.5
310.691,15647.1
313.746,12509.8
316.801,8117.65
319.855,5137.25
322.91,3411.76
325.965,2313.73
329.019,2000
332.074,1843.14
335.129,1843.14
338.183,1843.14
341.238,1843.14
344.293,1686.27
347.347,1529.41
350.402,1215.69
353.457,901.961
356.511,901.961
359.566,745.098
362.621,588.235
365.675,588.235
368.73,588.235
371.785,431.373
374.839,274.51
377.894,274.51
380.949,274.51
384.003,274.51
387.058,274.51
390.113,274.51
393.167,274.51
396.222,274.51
399.277,431.373
402.331,588.235
405.386,588.235
408.441,745.098
411.495,901.961
414.55,1058.82
417.605,1372.55
420.659,2000
423.714,2470.59
426.768,2941.18
429.823,3411.76
432.878,3725.49
435.932,4352.94
438.987,5294.12
442.042,5764.71
445.096,6235.29
448.151,5764.71
451.206,5607.84
454.26,4823.53
457.315,3725.49
460.37,2784.31
463.424,1686.27
466.479,1058.82
469.534,745.098
472.588,745.098
475.643,745.098
478.698,745.098
481.752,1058.82
484.807,1372.55
487.862,1372.55
490.916,1372.55
493.971,1215.69
497.026,1215.69
500.08,1215.69
503.135,1215.69
506.19,1215.69
509.244,1215.69
512.299,1058.82
515.354,1058.82
518.408,1058.82
521.463,1215.69
524.518,1215.69
527.572,1372.55
530.627,1372.55
533.682,1215.69
536.736,1215.69
539.791,901.961
542.846,745.098
545.9,588.235
548.955,745.098
552.01,745.098
555.064,901.961
558.119,1058.82
561.174,1215.69
564.228,1529.41
567.283,1843.14
570.338,2000
573.392,2156.86
576.447,2156.86
579.502,2000
582.556,2000
585.611,1686.27
588.666,1215.69
591.72,1058.82
594.775,745.098
597.83,745.098
600.884,745.098
603.939,745.098
606.994,901.961
610.048,901.961
613.103,901.961
616.158,901.961
619.212,901.961
622.267,901.961
625.322,901.961
628.376,901.961
631.431,901.961
634.486,1058.82
637.54,1058.82
640.595,1058.82
643.65,1215.69
646.704,1372.55
649.759,1529.41
652.814,1529.41
655.868,1686.27
658.923,1686.27
661.977,1529.41
665.032,1372.55
668.087,1215.69
671.141,901.961
674.196,745.098
677.251,588.235
680.305,431.373
683.36,431.373
686.415,274.51
689.469,274.51
692.524,117.647
695.579,117.647
698.633,117.647
701.688,117.647
704.743,117.647
707.797,117.647
710.852,117.647
713.907,117.647
716.961,117.647
720.016,274.51
723.071,274.51
726.125,274.51
729.18,431.373
732.235,431.373
735.289,588.235
738.344,745.098
741.399,901.961
744.453,1058.82
747.508,1058.82
750.563,1215.69
753.617,1372.55
756.672,1529.41
759.727,1529.41
762.781,1686.27
765.836,1843.14
768.891,1843.14
771.945,1843.14
775,1843.14
778.055,1843.14
781.109,1843.14
784.164,1686.27
787.219,1529.41
790.273,1529.41
793.328,1372.55
796.383,1058.82
799.437,1058.82
802.492,745.098
805.547,588.235
808.601,431.373
811.656,274.51
814.711,117.647
817.765,117.647
820.82,117.647
823.875,117.647
826.929,117.647
829.984,117.647
833.039,117.647
836.093,117.647
839.148,117.647
842.203,117.647
845.257,117.647
848.312,117.647
851.367,117.647
854.421,117.647
857.476,117.647
860.531,117.647
863.585,117.647
866.64,117.647
869.695,117.647
872.749,274.51
875.804,431.373
878.859,745.098
881.913,1058.82
884.968,1529.41
888.023,2156.86
891.077,2941.18
894.132,3411.76
897.186,3725.49
900.241,3725.49
903.296,3725.49
906.35,3725.49
909.405,3882.35
912.46,3882.35
915.514,4196.08
918.569,4823.53
921.624,5921.57
924.678,7333.33
927.733,9058.82
930.788,11098
933.842,12980.4
936.897,13921.6
939.952,14392.2
943.006,13921.6
946.061,12823.5
949.116,10784.3
952.17,8745.1
955.225,7019.61
958.28,5450.98
961.334,4352.94
964.389,3411.76
967.444,2784.31
970.498,2313.73
973.553,1686.27
976.608,1058.82
979.662,745.098
982.717,588.235
985.772,431.373
988.826,274.51
991.881,274.51
994.936,274.51
997.99,274.51
1001.05,274.51
1004.1,274.51
1007.15,274.51
1010.21,274.51
1013.26,274.51
1016.32,117.647
1019.37,117.647
1022.43,117.647
1025.48,117.647
1028.54,117.647
1031.59,117.647
1034.65,117.647
1037.7,117.647
1040.76,117.647
1043.81,117.647
1046.86,117.647
1049.92,117.647
1052.97,117.647
1056.03,117.647
1059.08,117.647
1062.14,274.51
1065.19,274.51
1068.25,274.51
1071.3,274.51
1074.36,274.51
1077.41,117.647
1080.47,117.647
1083.52,117.647
1086.58,117.647
1089.63,117.647
1092.68,117.647
1095.74,117.647
1098.79,117.647
1101.85,274.51
1104.9,274.51
1107.96,274.51
1111.01,274.51
1114.07,274.51
1117.12,117.647
1120.18,117.647
1123.23,117.647
1126.29,117.647
1129.34,274.51
1132.4,431.373
1135.45,588.235
1138.5,745.098
1141.56,901.961
1144.61,1058.82
1147.67,1058.82
1150.72,1215.69
1153.78,1372.55
1156.83,1529.41
1159.89,1686.27
1162.94,1843.14
1166,2156.86
1169.05,2313.73
1172.11,2313.73
1175.16,2000
1178.22,1686.27
1181.27,1215.69
1184.32,745.098
1187.38,588.235
1190.43,431.373
1193.49,274.51
1196.54,274.51
1199.6,274.51
1202.65,274.51
1205.71,431.373
1208.76,588.235
1211.82,901.961
1214.87,1372.55
1217.93,1686.27
1220.98,2156.86
1224.04,2313.73
1227.09,2470.59
1230.14,2470.59
1233.2,2470.59
1236.25,2313.73
1239.31,2000
1242.36,1686.27
1245.42,1529.41
1248.47,1372.55
1251.53,1372.55
1254.58,1372.55
1257.64,1372.55
1260.69,1372.55
1263.75,1372.55
1266.8,1372.55
1269.86,1372.55
1272.91,1529.41
1275.96,1529.41
1279.02,1529.41
1282.07,1529.41
1285.13,1372.55
1288.18,1215.69
1291.24,901.961
1294.29,745.098
1297.35,431.373
1300.4,431.373
1303.46,431.373
1306.51,431.373
1309.57,431.373
1312.62,431.373
1315.68,431.373
1318.73,431.373
1321.78,431.373
1324.84,588.235
1327.89,745.098
1330.95,1058.82
1334,1372.55
1337.06,1686.27
1340.11,2000
1343.17,2156.86
1346.22,2313.73
1349.28,2313.73
1352.33,2156.86
1355.39,2000
1358.44,1686.27
1361.5,1372.55
1364.55,1058.82
1367.6,901.961
1370.66,588.235
1373.71,588.235
1376.77,588.235
1379.82,431.373
1382.88,274.51
1385.93,274.51
1388.99,274.51
1392.04,431.373
1395.1,431.373
1398.15,588.235
1401.21,745.098
1404.26,901.961
1407.32,901.961
1410.37,901.961
1413.42,901.961
1416.48,901.961
1419.53,901.961
1422.59,745.098
1425.64,745.098
1428.7,588.235
1431.75,431.373
1434.81,274.51
1437.86,274.51
1440.92,274.51
1443.97,117.647
1447.03,117.647
1450.08,117.647
1453.14,117.647
1456.19,117.647
1459.24,117.647
1462.3,117.647
1465.35,117.647
1468.41,117.647
1471.46,117.647
1474.52,117.647
1477.57,117.647
1480.63,274.51
1483.68,274.51
1486.74,274.51
1489.79,274.51
1492.85,274.51
1495.9,274.51
1498.95,274.51
1502.01,274.51
1505.06,274.51
1508.12,274.51
1511.17,274.51
1514.23,431.373
1517.28,431.373
1520.34,431.373
1523.39,431.373
1526.45,431.373
1529.5,431.373
1532.56,431.373
1535.61,274.51
1538.67,274.51
1541.72,274.51
1544.77,274.51
1547.83,431.373
1550.88,588.235
1553.94,745.098
1556.99,745.098
1560.05,745.098
1563.1,745.098
1566.16,901.961
1569.21,1058.82
1572.27,1215.69
1575.32,1058.82
1578.38,1058.82
1581.43,1058.82
1584.49,1058.82
1587.54,1058.82
1590.59,1058.82
1593.65,1058.82
1596.7,1058.82
1599.76,1058.82
1602.81,1058.82
1605.87,1058.82
1608.92,1058.82
1611.98,1058.82
1615.03,1058.82
1618.09,745.098
1621.14,588.235
1624.2,431.373
1627.25,274.51
1630.31,274.51
1633.36,274.51
1636.41,274.51
1639.47,117.647
1642.52,117.647
1645.58,117.647
1648.63,117.647
1651.69,274.51
1654.74,274.51
1657.8,274.51
1660.85,274.51
1663.91,274.51
1666.96,431.373
1670.02,431.373
1673.07,431.373
1676.13,431.373
1679.18,431.373
1682.23,431.373
1685.29,431.373
1688.34,431.373
1691.4,588.235
1694.45,588.235
1697.51,588.235
1700.56,745.098
1703.62,745.098
1706.67,745.098
1709.73,745.098
1712.78,745.098
1715.84,745.098
1718.89,745.098
1721.95,588.235
1725,588.235
1728.05,588.235
1731.11,588.235
1734.16,588.235
1737.22,431.373
1740.27,431.373
1743.33,274.51
1746.38,274.51
1749.44,274.51
1752.49,274.51
1755.55,117.647
1758.6,117.647
1761.66,117.647
1764.71,117.647
1767.77,274.51
1770.82,274.51
1773.87,431.373
1776.93,431.373
1779.98,431.373
1783.04,431.373
1786.09,274.51
1789.15,274.51
1792.2,274.51
1795.26,274.51
1798.31,274.51
1801.37,274.51
1804.42,274.51
1807.48,274.51
1810.53,274.51
1813.59,274.51
1816.64,274.51
1819.69,274.51
1822.75,274.51
1825.8,274.51
1828.86,274.51
1831.91,274.51
1834.97,274.51
1838.02,274.51
1841.08,274.51
1844.13,274.51
1847.19,274.51
1850.24,274.51
1853.3,274.51
1856.35,274.51
1859.41,274.51
1862.46,274.51
1865.51,274.51
1868.57,274.51
1871.62,274.51
1874.68,274.51
1877.73,274.51
1880.79,274.51
1883.84,274.51
1886.9,274.51
1889.95,274.51
1893.01,274.51
1896.06,274.51
1899.12,274.51
1902.17,274.51
1905.23,274.51
1908.28,274.51
1911.33,274.51
1914.39,274.51
1917.44,274.51
1920.5,274.51
1923.55,274.51
1926.61,274.51
1929.66,274.51
1932.72,274.51
1935.77,274.51
1938.83,274.51
1941.88,274.51
1944.94,274.51
1947.99,274.51
1951.05,274.51
1954.1,274.51
1957.15,274.51
1960.21,274.51
1963.26,431.373
1966.32,431.373
1969.37,274.51
1972.43,274.51
1975.48,274.51
1978.54,274.51
1981.59,274.51
1984.65,274.51
1987.7,274.51
1990.76,274.51
1993.81,274.51
1996.86,274.51
1999.92,274.51
2002.97,274.51
2006.03,274.51
2009.08,117.647
2012.14,117.647
2015.19,117.647
2018.25,117.647
2021.3,117.647
2024.36,117.647
2027.41,117.647
2030.47,274.51
2033.52,274.51
2036.58,274.51
2039.63,274.51
2042.68,274.51
2045.74,274.51
2048.79,274.51
2051.85,274.51
2054.9,274.51
2057.96,274.51
2061.01,274.51
2064.07,274.51
2067.12,274.51
2070.18,274.51
2073.23,274.51
2076.29,274.51
2079.34,274.51
2082.4,274.51
2085.45,274.51
2088.5,274.51
2091.56,274.51
2094.61,274.51
2097.67,274.51
2100.72,274.51
2103.78,274.51
2106.83,274.51
2109.89,274.51
2112.94,274.51
2116,274.51
2119.05,274.51
2122.11,431.373
2125.16,431.373
2128.22,431.373
2131.27,431.373
2134.32,431.373
2137.38,431.373
2140.43,431.373
2143.49,431.373
2146.54,431.373
2149.6,431.373
2152.65,431.373
2155.71,431.373
2158.76,274.51
2161.82,274.51
2164.87,274.51
2167.93,274.51
2170.98,274.51
2174.04,274.51
2177.09,274.51
2180.14,274.51
2183.2,274.51
2186.25,274.51
2189.31,274.51
2192.36,117.647
2195.42,117.647
2198.47,117.647
2201.53,117.647
2204.58,117.647
2207.64,274.51
2210.69,274.51
2213.75,274.51
2216.8,274.51
2219.86,274.51
2222.91,274.51
2225.96,274.51
2229.02,274.51
2232.07,274.51
2235.13,117.647
2238.18,117.647
2241.24,117.647
2244.29,117.647
2247.35,117.647
2250.4,117.647
2253.46,274.51
2256.51,274.51
2259.57,274.51
2262.62,274.51
2265.68,274.51
2268.73,274.51
2271.78,274.51
2274.84,274.51
2277.89,274.51
2280.95,274.51
2284,274.51
2287.06,274.51
2290.11,274.51
