,GP550R
RamanShit,Intensity
258.828,263.78
261.878,122.047
264.928,98.4252
267.978,98.4252
271.027,122.047
274.077,145.669
277.127,192.913
280.177,240.157
283.226,287.402
286.276,287.402
289.326,287.402
292.376,311.024
295.425,334.646
298.475,381.89
301.525,429.134
304.575,500
307.624,594.488
310.674,783.465
313.724,996.063
316.774,1114.17
319.823,1255.91
322.873,1066.93
325.923,830.709
328.973,452.756
332.022,263.78
335.072,216.535
338.122,216.535
341.172,192.913
344.222,192.913
347.271,169.291
350.321,169.291
353.371,122.047
356.421,122.047
359.47,145.669
362.52,145.669
365.57,169.291
368.62,169.291
371.669,169.291
374.719,169.291
377.769,169.291
380.819,216.535
383.868,287.402
386.918,476.378
389.968,665.354
393.018,736.22
396.067,830.709
399.117,712.598
402.167,594.488
405.217,429.134
408.266,429.134
411.316,405.512
414.366,405.512
417.416,452.756
420.465,381.89
423.515,334.646
426.565,240.157
429.615,169.291
432.665,240.157
435.714,287.402
438.764,311.024
441.814,405.512
444.864,311.024
447.913,240.157
450.963,98.4252
454.013,51.1811
457.063,27.5591
460.112,51.1811
463.162,74.8031
466.212,98.4252
469.262,145.669
472.311,169.291
475.361,240.157
478.411,334.646
481.461,452.756
484.51,618.11
487.56,476.378
490.61,452.756
493.66,358.268
496.709,240.157
499.759,240.157
502.809,263.78
505.859,311.024
508.909,358.268
511.958,381.89
515.008,405.512
518.058,405.512
521.108,452.756
524.157,500
527.207,641.732
530.257,618.11
533.307,570.866
536.356,523.622
539.406,500
542.456,405.512
545.506,216.535
548.555,334.646
551.605,334.646
554.655,358.268
557.705,358.268
560.754,358.268
563.804,358.268
566.854,358.268
569.904,358.268
572.953,381.89
576.003,381.89
579.053,405.512
582.103,429.134
585.152,452.756
588.202,476.378
591.252,500
594.302,523.622
597.352,523.622
600.401,523.622
603.451,523.622
606.501,523.622
609.551,476.378
612.6,476.378
615.65,452.756
618.7,429.134
621.75,429.134
624.799,381.89
627.849,334.646
630.899,311.024
633.949,287.402
636.998,287.402
640.048,240.157
643.098,240.157
646.148,240.157
649.197,240.157
652.247,240.157
655.297,240.157
658.347,240.157
661.396,263.78
664.446,311.024
667.496,476.378
670.546,688.976
673.596,972.441
676.645,1633.86
679.695,2106.3
682.745,3925.2
685.795,3547.24
688.844,2082.68
691.894,1610.24
694.944,901.575
697.994,547.244
701.043,358.268
704.093,287.402
707.143,169.291
710.193,122.047
713.242,122.047
716.292,122.047
719.342,122.047
722.392,169.291
725.441,122.047
728.491,122.047
731.541,98.4252
734.591,98.4252
737.64,98.4252
740.69,74.8031
743.74,51.1811
746.79,51.1811
749.839,51.1811
752.889,51.1811
755.939,51.1811
758.989,98.4252
762.039,169.291
765.088,263.78
768.138,429.134
771.188,476.378
774.238,311.024
777.287,311.024
780.337,240.157
783.387,169.291
786.437,145.669
789.486,122.047
792.536,98.4252
795.586,74.8031
798.636,74.8031
801.685,98.4252
804.735,98.4252
807.785,122.047
810.835,145.669
813.884,192.913
816.934,240.157
819.984,240.157
823.034,240.157
826.083,240.157
829.133,240.157
832.183,311.024
835.233,287.402
838.283,216.535
841.332,216.535
844.382,216.535
847.432,216.535
850.482,216.535
853.531,216.535
856.581,216.535
859.631,240.157
862.681,240.157
865.73,240.157
868.78,216.535
871.83,216.535
874.88,216.535
877.929,216.535
880.979,216.535
884.029,192.913
887.079,169.291
890.128,169.291
893.178,169.291
896.228,192.913
899.278,216.535
902.327,240.157
905.377,263.78
908.427,334.646
911.477,429.134
914.526,476.378
917.576,570.866
920.626,500
923.676,452.756
926.726,405.512
929.775,358.268
932.825,287.402
935.875,192.913
938.925,169.291
941.974,145.669
945.024,122.047
948.074,122.047
951.124,122.047
954.173,98.4252
957.223,74.8031
960.273,51.1811
963.323,51.1811
966.372,51.1811
969.422,51.1811
972.472,51.1811
975.522,74.8031
978.571,74.8031
981.621,74.8031
984.671,98.4252
987.721,98.4252
990.77,122.047
993.82,169.291
996.87,263.78
999.92,358.268
1002.97,452.756
1006.02,476.378
1009.07,523.622
1012.12,452.756
1015.17,358.268
1018.22,240.157
1021.27,169.291
1024.32,74.8031
1027.37,51.1811
1030.42,51.1811
1033.47,51.1811
1036.52,51.1811
1039.57,51.1811
1042.62,74.8031
1045.67,74.8031
1048.72,74.8031
1051.77,74.8031
1054.82,145.669
1057.87,263.78
1060.91,405.512
1063.96,570.866
1067.01,688.976
1070.06,759.843
1073.11,688.976
1076.16,594.488
1079.21,405.512
1082.26,240.157
1085.31,145.669
1088.36,74.8031
1091.41,51.1811
1094.46,51.1811
1097.51,51.1811
1100.56,98.4252
1103.61,122.047
1106.66,122.047
1109.71,122.047
1112.76,122.047
1115.81,98.4252
1118.86,98.4252
1121.91,74.8031
1124.96,74.8031
1128.01,145.669
1131.06,192.913
1134.11,263.78
1137.16,358.268
1140.21,476.378
1143.26,594.488
1146.31,688.976
1149.36,759.843
1152.41,830.709
1155.46,854.331
1158.51,901.575
1161.56,1043.31
1164.61,1255.91
1167.66,1374.02
1170.71,1444.88
1173.76,1374.02
1176.81,1255.91
1179.86,1019.69
1182.91,807.087
1185.96,594.488
1189,405.512
1192.05,334.646
1195.1,263.78
1198.15,192.913
1201.2,145.669
1204.25,169.291
1207.3,192.913
1210.35,240.157
1213.4,358.268
1216.45,523.622
1219.5,712.598
1222.55,854.331
1225.6,877.953
1228.65,925.197
1231.7,854.331
1234.75,854.331
1237.8,807.087
1240.85,783.465
1243.9,712.598
1246.95,618.11
1250,476.378
1253.05,358.268
1256.1,240.157
1259.15,122.047
1262.2,98.4252
1265.25,98.4252
1268.3,122.047
1271.35,192.913
1274.4,263.78
1277.45,334.646
1280.5,381.89
1283.55,405.512
1286.6,429.134
1289.65,381.89
1292.7,334.646
1295.75,216.535
1298.8,98.4252
1301.85,51.1811
1304.9,51.1811
1307.95,51.1811
1311,51.1811
1314.04,74.8031
1317.09,74.8031
1320.14,98.4252
1323.19,98.4252
1326.24,122.047
1329.29,192.913
1332.34,311.024
1335.39,476.378
1338.44,688.976
1341.49,877.953
1344.54,1019.69
1347.59,1090.55
1350.64,1161.42
1353.69,1043.31
1356.74,972.441
1359.79,830.709
1362.84,688.976
1365.89,547.244
1368.94,429.134
1371.99,287.402
1375.04,263.78
1378.09,216.535
1381.14,169.291
1384.19,122.047
1387.24,98.4252
1390.29,98.4252
1393.34,98.4252
1396.39,122.047
1399.44,169.291
1402.49,240.157
1405.54,263.78
1408.59,287.402
1411.64,287.402
1414.69,287.402
1417.74,263.78
1420.79,216.535
1423.84,145.669
1426.89,122.047
1429.94,98.4252
1432.99,51.1811
1436.04,27.5591
1439.09,27.5591
1442.13,27.5591
1445.18,51.1811
1448.23,51.1811
1451.28,74.8031
1454.33,74.8031
1457.38,74.8031
1460.43,51.1811
1463.48,51.1811
1466.53,51.1811
1469.58,51.1811
1472.63,51.1811
1475.68,51.1811
1478.73,51.1811
1481.78,51.1811
1484.83,98.4252
1487.88,122.047
1490.93,122.047
1493.98,122.047
1497.03,122.047
1500.08,98.4252
1503.13,98.4252
1506.18,74.8031
1509.23,74.8031
1512.28,74.8031
1515.33,74.8031
1518.38,98.4252
1521.43,98.4252
1524.48,74.8031
1527.53,74.8031
1530.58,51.1811
1533.63,51.1811
1536.68,51.1811
1539.73,74.8031
1542.78,98.4252
1545.83,98.4252
1548.88,145.669
1551.93,240.157
1554.98,334.646
1558.03,358.268
1561.08,358.268
1564.13,381.89
1567.17,429.134
1570.22,476.378
1573.27,523.622
1576.32,476.378
1579.37,452.756
1582.42,429.134
1585.47,381.89
1588.52,405.512
1591.57,429.134
1594.62,452.756
1597.67,476.378
1600.72,500
1603.77,500
1606.82,523.622
1609.87,523.622
1612.92,523.622
1615.97,476.378
1619.02,381.89
1622.07,263.78
1625.12,169.291
1628.17,98.4252
1631.22,74.8031
1634.27,74.8031
1637.32,51.1811
1640.37,27.5591
1643.42,27.5591
1646.47,27.5591
1649.52,51.1811
1652.57,51.1811
1655.62,51.1811
1658.67,74.8031
1661.72,74.8031
1664.77,74.8031
1667.82,74.8031
1670.87,74.8031
1673.92,74.8031
1676.97,74.8031
1680.02,51.1811
1683.07,51.1811
1686.12,51.1811
1689.17,51.1811
1692.22,51.1811
1695.26,51.1811
1698.31,51.1811
1701.36,74.8031
1704.41,98.4252
1707.46,122.047
1710.51,145.669
1713.56,145.669
1716.61,145.669
1719.66,122.047
1722.71,98.4252
1725.76,74.8031
1728.81,74.8031
1731.86,74.8031
1734.91,98.4252
1737.96,98.4252
1741.01,74.8031
1744.06,51.1811
1747.11,51.1811
1750.16,51.1811
1753.21,51.1811
1756.26,51.1811
1759.31,51.1811
1762.36,98.4252
1765.41,98.4252
1768.46,122.047
1771.51,122.047
1774.56,122.047
1777.61,122.047
1780.66,122.047
1783.71,122.047
1786.76,122.047
1789.81,122.047
1792.86,122.047
1795.91,145.669
1798.96,145.669
1802.01,169.291
1805.06,169.291
1808.11,169.291
1811.16,169.291
1814.21,192.913
1817.26,192.913
1820.3,192.913
1823.35,169.291
1826.4,169.291
1829.45,145.669
1832.5,98.4252
1835.55,98.4252
1838.6,122.047
1841.65,145.669
1844.7,169.291
1847.75,169.291
1850.8,169.291
1853.85,169.291
1856.9,122.047
1859.95,98.4252
1863,74.8031
1866.05,74.8031
1869.1,51.1811
1872.15,51.1811
1875.2,51.1811
1878.25,51.1811
1881.3,51.1811
1884.35,51.1811
1887.4,51.1811
1890.45,74.8031
1893.5,74.8031
1896.55,74.8031
1899.6,74.8031
1902.65,74.8031
1905.7,51.1811
1908.75,51.1811
1911.8,51.1811
1914.85,74.8031
1917.9,74.8031
1920.95,74.8031
1924,74.8031
1927.05,74.8031
1930.1,74.8031
1933.15,74.8031
1936.2,98.4252
1939.25,98.4252
1942.3,74.8031
1945.35,74.8031
1948.39,51.1811
1951.44,51.1811
1954.49,74.8031
1957.54,74.8031
1960.59,98.4252
1963.64,98.4252
1966.69,98.4252
1969.74,98.4252
1972.79,98.4252
1975.84,74.8031
1978.89,74.8031
1981.94,74.8031
1984.99,74.8031
1988.04,74.8031
1991.09,74.8031
1994.14,74.8031
1997.19,74.8031
2000.24,74.8031
2003.29,74.8031
2006.34,51.1811
2009.39,51.1811
2012.44,51.1811
2015.49,74.8031
2018.54,74.8031
2021.59,74.8031
2024.64,98.4252
2027.69,98.4252
2030.74,122.047
2033.79,122.047
2036.84,145.669
2039.89,145.669
2042.94,145.669
2045.99,169.291
2049.04,169.291
2052.09,192.913
2055.14,192.913
2058.19,192.913
2061.24,192.913
2064.29,192.913
2067.34,169.291
2070.39,122.047
2073.43,122.047
2076.48,98.4252
2079.53,74.8031
2082.58,74.8031
2085.63,74.8031
2088.68,74.8031
2091.73,74.8031
2094.78,74.8031
2097.83,74.8031
2100.88,51.1811
2103.93,74.8031
2106.98,74.8031
2110.03,98.4252
2113.08,98.4252
2116.13,122.047
2119.18,122.047
2122.23,122.047
2125.28,122.047
2128.33,122.047
2131.38,98.4252
2134.43,98.4252
2137.48,98.4252
2140.53,98.4252
2143.58,98.4252
2146.63,98.4252
2149.68,145.669
2152.73,74.8031
2155.78,74.8031
2158.83,74.8031
2161.88,74.8031
2164.93,74.8031
2167.98,98.4252
2171.03,145.669
2174.08,145.669
2177.13,145.669
2180.18,145.669
2183.23,145.669
2186.28,145.669
2189.33,145.669
2192.38,145.669
2195.43,145.669
2198.48,169.291
2201.52,192.913
2204.57,240.157
2207.62,287.402
2210.67,381.89
2213.72,452.756
2216.77,476.378
2219.82,500
2222.87,570.866
2225.92,594.488
2228.97,500
2232.02,476.378
2235.07,523.622
2238.12,547.244
2241.17,570.866
2244.22,618.11
2247.27,641.732
2250.32,712.598
2253.37,688.976
2256.42,688.976
2259.47,712.598
2262.52,712.598
2265.57,712.598
2268.62,712.598
2271.67,759.843
2274.72,830.709
2277.77,641.732
2280.82,500
2283.87,381.89
2286.92,311.024
2289.97,311.024
