,GP550R
RamanShit,Intensity
244.398,12311.6
247.575,12239.1
250.753,11949.3
253.93,11876.8
257.107,11514.5
260.284,17311.6
263.462,14558
266.639,9557.97
269.816,7094.2
272.993,4920.29
276.171,7166.67
279.348,9050.72
282.525,11007.2
285.702,5210.14
288.88,6007.25
292.057,6007.25
295.234,137.681
298.411,-79.7101
301.589,-79.7101
304.766,-7.24638
307.943,210.145
311.12,355.072
314.298,500
317.475,862.319
320.652,1659.42
323.829,2166.67
327.007,2746.38
330.184,3760.87
333.361,1876.81
336.538,934.783
339.716,210.145
342.893,210.145
346.07,282.609
349.247,355.072
352.425,355.072
355.602,355.072
358.779,355.072
361.957,210.145
365.134,210.145
368.311,137.681
371.488,137.681
374.666,137.681
377.843,65.2174
381.02,65.2174
384.197,65.2174
387.375,282.609
390.552,934.783
393.729,1876.81
396.906,2891.3
400.084,2746.38
403.261,1949.28
406.438,1949.28
409.615,1224.64
412.793,427.536
415.97,210.145
419.147,137.681
422.324,65.2174
425.502,-7.24638
428.679,-7.24638
431.856,-7.24638
435.033,65.2174
438.211,137.681
441.388,282.609
444.565,1007.25
447.742,2311.59
450.92,3543.48
454.097,3398.55
457.274,2746.38
460.452,1876.81
463.629,789.855
466.806,500
469.983,427.536
473.161,355.072
476.338,355.072
479.515,282.609
482.692,282.609
485.87,210.145
489.047,282.609
492.224,282.609
495.401,282.609
498.579,282.609
501.756,210.145
504.933,282.609
508.11,427.536
511.288,717.391
514.465,862.319
517.642,862.319
520.819,717.391
523.997,427.536
527.174,210.145
530.351,65.2174
533.528,137.681
536.706,210.145
539.883,427.536
543.06,572.464
546.237,717.391
549.415,789.855
552.592,862.319
555.769,934.783
558.946,1079.71
562.124,862.319
565.301,500
568.478,282.609
571.656,65.2174
574.833,-7.24638
578.01,-7.24638
581.187,-7.24638
584.365,-7.24638
587.542,-7.24638
590.719,-7.24638
593.896,-7.24638
597.074,-7.24638
600.251,-7.24638
603.428,-7.24638
606.605,-7.24638
609.783,-7.24638
612.96,-7.24638
616.137,-7.24638
619.314,-7.24638
622.492,65.2174
625.669,137.681
628.846,210.145
632.023,282.609
635.201,427.536
638.378,427.536
641.555,427.536
644.732,427.536
647.91,210.145
651.087,-7.24638
654.264,-7.24638
657.441,-7.24638
660.619,-7.24638
663.796,-7.24638
666.973,-7.24638
670.151,-7.24638
673.328,-7.24638
676.505,-7.24638
679.682,-7.24638
682.86,-7.24638
686.037,-7.24638
689.214,-7.24638
692.391,-7.24638
695.569,-7.24638
698.746,-7.24638
701.923,-7.24638
705.1,65.2174
708.278,-7.24638
711.455,-7.24638
714.632,-7.24638
717.809,-7.24638
720.987,-7.24638
724.164,-7.24638
727.341,-7.24638
730.518,-7.24638
733.696,-7.24638
736.873,-7.24638
740.05,-7.24638
743.227,-7.24638
746.405,-7.24638
749.582,-7.24638
752.759,-7.24638
755.936,-7.24638
759.114,-7.24638
762.291,-7.24638
765.468,-7.24638
768.645,-7.24638
771.823,-7.24638
775,-7.24638
778.177,-7.24638
781.355,-7.24638
784.532,-7.24638
787.709,-7.24638
790.886,-7.24638
794.064,-7.24638
797.241,-7.24638
800.418,-7.24638
803.595,-7.24638
806.773,-7.24638
809.95,-7.24638
813.127,-7.24638
816.304,-7.24638
819.482,65.2174
822.659,65.2174
825.836,210.145
829.013,355.072
832.191,500
835.368,862.319
838.545,1369.57
841.722,2239.13
844.9,3108.7
848.077,3398.55
851.254,4050.72
854.431,3615.94
857.609,3036.23
860.786,2311.59
863.963,1442.03
867.14,789.855
870.318,572.464
873.495,427.536
876.672,355.072
879.849,210.145
883.027,282.609
886.204,282.609
889.381,427.536
892.559,572.464
895.736,862.319
898.913,1079.71
902.09,3760.87
905.268,3688.41
908.445,3688.41
911.622,4340.58
914.799,6586.96
917.977,7818.84
921.154,8833.33
924.331,10210.1
927.508,10717.4
930.686,9702.9
933.863,8471.01
937.04,7239.13
940.217,4630.43
943.395,4123.19
946.572,3978.26
949.749,1152.17
952.926,572.464
956.104,427.536
959.281,282.609
962.458,282.609
965.635,210.145
968.813,282.609
971.99,427.536
975.167,1007.25
978.344,1731.88
981.522,2021.74
984.699,1442.03
987.876,1297.1
991.054,1007.25
994.231,862.319
997.408,717.391
1000.59,934.783
1003.76,934.783
1006.94,1007.25
1010.12,1079.71
1013.29,644.928
1016.47,500
1019.65,355.072
1022.83,137.681
1026,65.2174
1029.18,-7.24638
1032.36,-7.24638
1035.54,-7.24638
1038.71,-7.24638
1041.89,-7.24638
1045.07,-7.24638
1048.24,-7.24638
1051.42,-7.24638
1054.6,-7.24638
1057.78,-7.24638
1060.95,-7.24638
1064.13,-7.24638
1067.31,-7.24638
1070.48,-7.24638
1073.66,-7.24638
1076.84,-7.24638
1080.02,-7.24638
1083.19,-7.24638
1086.37,-7.24638
1089.55,-7.24638
1092.73,-7.24638
1095.9,-7.24638
1099.08,-7.24638
1102.26,-7.24638
1105.43,-7.24638
1108.61,-7.24638
1111.79,-7.24638
1114.97,-7.24638
1118.14,-7.24638
1121.32,-7.24638
1124.5,-7.24638
1127.68,-7.24638
1130.85,-7.24638
1134.03,-7.24638
1137.21,-7.24638
1140.38,65.2174
1143.56,65.2174
1146.74,137.681
1149.92,210.145
1153.09,355.072
1156.27,427.536
1159.45,427.536
1162.63,427.536
1165.8,427.536
1168.98,427.536
1172.16,355.072
1175.33,210.145
1178.51,-7.24638
1181.69,-7.24638
1184.87,-7.24638
1188.04,-7.24638
1191.22,-7.24638
1194.4,-7.24638
1197.58,-7.24638
1200.75,-7.24638
1203.93,-7.24638
1207.11,-7.24638
1210.28,-7.24638
1213.46,-7.24638
1216.64,-7.24638
1219.82,-7.24638
1222.99,-7.24638
1226.17,-7.24638
1229.35,-7.24638
1232.53,-7.24638
1235.7,-7.24638
1238.88,-7.24638
1242.06,-7.24638
1245.23,-7.24638
1248.41,-7.24638
1251.59,-7.24638
1254.77,-7.24638
1257.94,-7.24638
1261.12,-7.24638
1264.3,-7.24638
1267.47,-7.24638
1270.65,-7.24638
1273.83,-7.24638
1277.01,-7.24638
1280.18,-7.24638
1283.36,-7.24638
1286.54,-7.24638
1289.72,-7.24638
1292.89,-7.24638
1296.07,-7.24638
1299.25,-7.24638
1302.42,-7.24638
1305.6,-7.24638
1308.78,-7.24638
1311.96,-7.24638
1315.13,-7.24638
1318.31,-7.24638
1321.49,-7.24638
1324.67,-7.24638
1327.84,-7.24638
1331.02,-7.24638
1334.2,-7.24638
1337.37,-7.24638
1340.55,-7.24638
1343.73,-7.24638
1346.91,-7.24638
1350.08,-7.24638
1353.26,-7.24638
1356.44,-7.24638
1359.62,-7.24638
1362.79,-7.24638
1365.97,-7.24638
1369.15,-7.24638
1372.32,-7.24638
1375.5,-7.24638
1378.68,-7.24638
1381.86,-7.24638
1385.03,-7.24638
1388.21,-7.24638
1391.39,-7.24638
1394.57,-7.24638
1397.74,-7.24638
1400.92,-7.24638
1404.1,-7.24638
1407.27,-7.24638
1410.45,-7.24638
1413.63,-7.24638
1416.81,-7.24638
1419.98,-7.24638
1423.16,-7.24638
1426.34,-7.24638
1429.52,-7.24638
1432.69,-7.24638
1435.87,-7.24638
1439.05,-7.24638
1442.22,-7.24638
1445.4,-7.24638
1448.58,-7.24638
1451.76,-7.24638
1454.93,-7.24638
1458.11,-7.24638
1461.29,-7.24638
1464.46,-7.24638
1467.64,-7.24638
1470.82,-7.24638
1474,-7.24638
1477.17,-7.24638
1480.35,-7.24638
1483.53,-7.24638
1486.71,-7.24638
1489.88,-7.24638
1493.06,-7.24638
1496.24,-7.24638
1499.41,-7.24638
1502.59,-7.24638
1505.77,-7.24638
1508.95,-7.24638
1512.12,-7.24638
1515.3,-7.24638
1518.48,-7.24638
1521.66,-7.24638
1524.83,-7.24638
1528.01,-7.24638
1531.19,-7.24638
1534.36,-7.24638
1537.54,-7.24638
1540.72,-7.24638
1543.9,-7.24638
1547.07,-7.24638
1550.25,-7.24638
1553.43,-7.24638
1556.61,-7.24638
1559.78,-7.24638
1562.96,-7.24638
1566.14,-7.24638
1569.31,-7.24638
1572.49,-7.24638
1575.67,-7.24638
1578.85,-7.24638
1582.02,-7.24638
1585.2,-7.24638
1588.38,-7.24638
1591.56,-7.24638
1594.73,-7.24638
1597.91,-7.24638
1601.09,-7.24638
1604.26,-7.24638
1607.44,-7.24638
1610.62,-7.24638
1613.8,-7.24638
1616.97,-7.24638
1620.15,-7.24638
1623.33,-7.24638
1626.51,-7.24638
1629.68,-7.24638
1632.86,-7.24638
1636.04,-7.24638
1639.21,-7.24638
1642.39,-7.24638
1645.57,-7.24638
1648.75,-7.24638
1651.92,-7.24638
1655.1,-7.24638
1658.28,-7.24638
1661.45,-7.24638
1664.63,-7.24638
1667.81,-7.24638
1670.99,-7.24638
1674.16,-7.24638
1677.34,-7.24638
1680.52,-7.24638
1683.7,-7.24638
1686.87,-7.24638
1690.05,-7.24638
1693.23,-7.24638
1696.4,-7.24638
1699.58,-7.24638
1702.76,-7.24638
1705.94,-7.24638
1709.11,-7.24638
1712.29,-7.24638
1715.47,-7.24638
1718.65,-7.24638
1721.82,-7.24638
1725,-7.24638
1728.18,-7.24638
1731.35,-7.24638
1734.53,-7.24638
1737.71,-7.24638
1740.89,-7.24638
1744.06,-7.24638
1747.24,-7.24638
1750.42,-7.24638
1753.6,-7.24638
1756.77,-7.24638
1759.95,-7.24638
1763.13,-7.24638
1766.3,-7.24638
1769.48,-7.24638
1772.66,-7.24638
1775.84,-7.24638
1779.01,-7.24638
1782.19,-7.24638
1785.37,-7.24638
1788.55,-7.24638
1791.72,-7.24638
1794.9,-7.24638
1798.08,-7.24638
1801.25,-7.24638
1804.43,-7.24638
1807.61,-7.24638
1810.79,-7.24638
1813.96,-7.24638
1817.14,-7.24638
1820.32,-7.24638
1823.49,-7.24638
1826.67,-7.24638
1829.85,-7.24638
1833.03,-7.24638
1836.2,-7.24638
1839.38,-7.24638
1842.56,-7.24638
1845.74,-7.24638
1848.91,-7.24638
1852.09,-7.24638
1855.27,-7.24638
1858.44,-7.24638
1861.62,-7.24638
1864.8,-7.24638
1867.98,-7.24638
1871.15,-7.24638
1874.33,-7.24638
1877.51,-7.24638
1880.69,-7.24638
1883.86,-7.24638
1887.04,-7.24638
1890.22,-7.24638
1893.39,-7.24638
1896.57,-7.24638
1899.75,-7.24638
1902.93,-7.24638
1906.1,-7.24638
1909.28,-7.24638
1912.46,-7.24638
1915.64,-7.24638
1918.81,-7.24638
1921.99,-7.24638
1925.17,-7.24638
1928.34,-7.24638
1931.52,-7.24638
1934.7,-7.24638
1937.88,-7.24638
1941.05,-7.24638
1944.23,-7.24638
1947.41,-7.24638
1950.59,-7.24638
1953.76,-7.24638
1956.94,-7.24638
1960.12,-7.24638
1963.29,-7.24638
1966.47,-7.24638
1969.65,-7.24638
1972.83,-7.24638
1976,-7.24638
1979.18,-7.24638
1982.36,-7.24638
1985.54,-7.24638
1988.71,-7.24638
1991.89,-7.24638
1995.07,-7.24638
1998.24,-7.24638
2001.42,-7.24638
2004.6,-7.24638
2007.78,-7.24638
2010.95,-7.24638
2014.13,-7.24638
2017.31,-7.24638
2020.48,-7.24638
2023.66,-7.24638
2026.84,-7.24638
2030.02,-7.24638
2033.19,-7.24638
2036.37,-7.24638
2039.55,-7.24638
2042.73,-7.24638
2045.9,-7.24638
2049.08,-7.24638
2052.26,-7.24638
2055.43,-7.24638
2058.61,-7.24638
2061.79,-7.24638
2064.97,-7.24638
2068.14,-7.24638
2071.32,-7.24638
2074.5,-7.24638
2077.68,-7.24638
2080.85,-7.24638
2084.03,-7.24638
2087.21,-7.24638
2090.38,-7.24638
2093.56,-7.24638
2096.74,-7.24638
2099.92,-7.24638
2103.09,-7.24638
2106.27,-7.24638
2109.45,-7.24638
2112.63,-7.24638
2115.8,-7.24638
2118.98,-7.24638
2122.16,-7.24638
2125.33,-7.24638
2128.51,-7.24638
2131.69,-7.24638
2134.87,-7.24638
2138.04,-7.24638
2141.22,-7.24638
2144.4,-7.24638
2147.58,-7.24638
2150.75,-7.24638
2153.93,-7.24638
2157.11,-7.24638
2160.28,-7.24638
2163.46,-7.24638
2166.64,-7.24638
2169.82,-7.24638
2172.99,-7.24638
2176.17,-7.24638
2179.35,-7.24638
2182.53,-7.24638
2185.7,-7.24638
2188.88,-7.24638
2192.06,-7.24638
2195.23,-7.24638
2198.41,-7.24638
2201.59,-7.24638
2204.77,-7.24638
2207.94,-7.24638
2211.12,-7.24638
2214.3,-7.24638
2217.47,-7.24638
2220.65,-7.24638
2223.83,-7.24638
2227.01,-7.24638
2230.18,-7.24638
2233.36,-7.24638
2236.54,-7.24638
2239.72,-7.24638
2242.89,-7.24638
2246.07,-7.24638
2249.25,-7.24638
2252.42,-7.24638
2255.6,-7.24638
2258.78,-7.24638
2261.96,-7.24638
2265.13,-7.24638
2268.31,-7.24638
2271.49,-7.24638
2274.67,-7.24638
2277.84,-7.24638
2281.02,-7.24638
2284.2,-7.24638
2287.37,-7.24638
2290.55,-7.24638
2293.73,-7.24638
2296.91,-7.24638
2300.08,-7.24638
2303.26,-7.24638
2306.44,-7.24638
2309.62,-7.24638
2312.79,-7.24638
2315.97,-7.24638
2319.15,-7.24638
2322.32,-7.24638
2325.5,-7.24638
2328.68,-7.24638
2331.86,-7.24638
2335.03,-7.24638
2338.21,-7.24638
