,GP550R
RamanShit,Intensity
258.762,2.1063
261.817,0.728346
264.871,0.334646
267.926,0.334646
270.981,0.334646
274.035,0.334646
277.09,0.531496
280.145,0.531496
283.199,0.925197
286.254,1.7126
289.309,2.5
292.363,3.48425
295.418,4.66535
298.473,5.45276
301.527,6.63386
304.582,8.20866
307.637,9.58661
310.691,11.1614
313.746,12.9331
316.801,14.7047
319.855,16.0827
322.91,16.4764
325.965,17.0669
329.019,16.2795
332.074,15.4921
335.129,13.7205
338.183,11.3583
341.238,8.79921
344.293,6.04331
347.347,3.6811
350.402,2.30315
353.457,1.12205
356.511,0.531496
359.566,0.334646
362.621,0.334646
365.675,0.334646
368.73,0.137795
371.785,0.334646
374.839,0.334646
377.894,0.728346
380.949,0.531496
384.003,0.531496
387.058,0.531496
390.113,0.728346
393.167,1.12205
396.222,2.1063
399.277,3.87795
402.331,6.63386
405.386,9.78346
408.441,12.7362
411.495,15.8858
414.55,18.8386
417.605,19.2323
420.659,17.4606
423.714,16.0827
426.768,13.1299
429.823,10.374
432.878,8.20866
435.932,7.02756
438.987,6.63386
442.042,6.24016
445.096,6.04331
448.151,5.84646
451.206,6.04331
454.26,6.04331
457.315,6.63386
460.37,7.22441
463.424,7.61811
466.479,7.81496
469.534,8.01181
472.588,7.81496
475.643,7.61811
478.698,7.61811
481.752,7.02756
484.807,6.43701
487.862,5.84646
490.916,5.25591
493.971,4.66535
497.026,3.6811
500.08,2.8937
503.135,2.1063
506.19,1.3189
509.244,0.728346
512.299,0.531496
515.354,0.531496
518.408,0.334646
521.463,0.334646
524.518,0.334646
527.572,0.531496
530.627,1.12205
533.682,2.1063
536.736,2.8937
539.791,3.48425
542.846,3.6811
545.9,4.0748
548.955,3.48425
552.01,3.48425
555.064,3.48425
558.119,3.6811
561.174,3.87795
564.228,4.4685
567.283,5.45276
570.338,6.04331
573.392,6.04331
576.447,6.24016
579.502,6.24016
582.556,6.24016
585.611,6.24016
588.666,5.84646
591.72,5.45276
594.775,5.05906
597.83,4.27165
600.884,3.2874
603.939,3.09055
606.994,3.09055
610.048,3.09055
613.103,3.6811
616.158,4.27165
619.212,5.05906
622.267,6.24016
625.322,7.02756
628.376,7.61811
631.431,7.81496
634.486,7.81496
637.54,7.81496
640.595,7.61811
643.65,6.83071
646.704,5.64961
649.759,4.4685
652.814,3.87795
655.868,3.48425
658.923,2.8937
661.977,2.5
665.032,2.1063
668.087,1.7126
671.141,1.51575
674.196,1.12205
677.251,0.925197
680.305,0.531496
683.36,0.334646
686.415,0.137795
689.469,0.137795
692.524,0.137795
695.579,0.137795
698.633,0.137795
701.688,0.137795
704.743,0.137795
707.797,0.137795
710.852,0.137795
713.907,0.137795
716.961,0.137795
720.016,0.334646
723.071,0.334646
726.125,0.334646
729.18,0.531496
732.235,0.531496
735.289,0.531496
738.344,0.531496
741.399,0.728346
744.453,0.728346
747.508,0.728346
750.563,0.728346
753.617,0.728346
756.672,0.531496
759.727,0.334646
762.781,0.334646
765.836,0.334646
768.891,0.334646
771.945,0.531496
775,0.531496
778.055,0.925197
781.109,1.12205
784.164,1.3189
787.219,1.7126
790.273,1.90945
793.328,2.5
796.383,3.09055
799.437,3.6811
802.492,4.27165
805.547,4.8622
808.601,5.25591
811.656,5.25591
814.711,5.25591
817.765,5.25591
820.82,5.05906
823.875,4.4685
826.929,3.6811
829.984,3.48425
833.039,3.2874
836.093,2.69685
839.148,2.5
842.203,2.5
845.257,2.1063
848.312,1.90945
851.367,1.7126
854.421,1.7126
857.476,1.51575
860.531,1.51575
863.585,1.51575
866.64,1.51575
869.695,1.3189
872.749,1.3189
875.804,1.3189
878.859,1.3189
881.913,1.3189
884.968,1.12205
888.023,0.925197
891.077,0.925197
894.132,0.728346
897.186,0.531496
900.241,0.531496
903.296,0.334646
906.35,0.334646
909.405,0.334646
912.46,0.137795
915.514,0.137795
918.569,0.137795
921.624,0.137795
924.678,0.137795
927.733,0.137795
930.788,0.137795
933.842,0.137795
936.897,0.137795
939.952,0.137795
943.006,0.137795
946.061,0.137795
949.116,0.137795
952.17,0.137795
955.225,0.137795
958.28,0.137795
961.334,0.334646
964.389,0.531496
967.444,0.728346
970.498,1.12205
973.553,1.7126
976.608,2.30315
979.662,2.8937
982.717,3.48425
985.772,4.0748
988.826,4.27165
991.881,4.4685
994.936,4.8622
997.99,5.05906
1001.05,5.25591
1004.1,5.45276
1007.15,6.63386
1010.21,8.40551
1013.26,9.98031
1016.32,11.752
1019.37,14.5079
1022.43,17.6575
1025.48,21.0039
1028.54,24.9409
1031.59,28.878
1034.65,31.437
1037.7,34.7835
1040.76,35.374
1043.81,31.6339
1046.86,29.6654
1049.92,25.3346
1052.97,21.3976
1056.03,18.0512
1059.08,15.4921
1062.14,13.1299
1065.19,10.7677
1068.25,8.01181
1071.3,5.64961
1074.36,4.27165
1077.41,2.8937
1080.47,1.90945
1083.52,1.7126
1086.58,1.51575
1089.63,1.7126
1092.68,1.7126
1095.74,1.90945
1098.79,1.90945
1101.85,1.90945
1104.9,1.90945
1107.96,1.7126
1111.01,1.3189
1114.07,0.925197
1117.12,0.531496
1120.18,0.531496
1123.23,0.137795
1126.29,0.137795
1129.34,0.137795
1132.4,0.137795
1135.45,0.137795
1138.5,0.334646
1141.56,0.531496
1144.61,0.925197
1147.67,1.3189
1150.72,1.7126
1153.78,2.30315
1156.83,2.5
1159.89,2.5
1162.94,2.5
1166,2.5
1169.05,2.5
1172.11,2.5
1175.16,2.30315
1178.22,2.30315
1181.27,2.1063
1184.32,1.7126
1187.38,1.3189
1190.43,0.925197
1193.49,0.531496
1196.54,0.531496
1199.6,0.334646
1202.65,0.334646
1205.71,0.334646
1208.76,0.334646
1211.82,0.334646
1214.87,0.137795
1217.93,0.137795
1220.98,0.137795
1224.04,0.137795
1227.09,0.137795
1230.14,0.334646
1233.2,0.334646
1236.25,0.334646
1239.31,0.334646
1242.36,0.334646
1245.42,0.531496
1248.47,0.531496
1251.53,0.531496
1254.58,0.334646
1257.64,0.334646
1260.69,0.334646
1263.75,0.137795
1266.8,0.137795
1269.86,0.137795
1272.91,0.137795
1275.96,-0.0590551
1279.02,-0.0590551
1282.07,-0.0590551
1285.13,-0.0590551
1288.18,-0.0590551
1291.24,-0.0590551
1294.29,-0.0590551
1297.35,-0.0590551
1300.4,-0.0590551
1303.46,-0.0590551
1306.51,-0.0590551
1309.57,-0.0590551
1312.62,-0.0590551
1315.68,-0.0590551
1318.73,-0.0590551
1321.78,-0.0590551
1324.84,-0.0590551
1327.89,-0.0590551
1330.95,-0.0590551
1334,-0.0590551
1337.06,-0.0590551
1340.11,-0.0590551
1343.17,-0.0590551
1346.22,-0.0590551
1349.28,-0.0590551
1352.33,-0.0590551
1355.39,-0.0590551
1358.44,-0.0590551
1361.5,-0.0590551
1364.55,-0.0590551
1367.6,-0.0590551
1370.66,-0.0590551
1373.71,-0.0590551
1376.77,-0.0590551
1379.82,-0.0590551
1382.88,-0.0590551
1385.93,-0.0590551
1388.99,-0.0590551
1392.04,-0.0590551
1395.1,-0.0590551
1398.15,-0.0590551
1401.21,-0.0590551
1404.26,-0.0590551
1407.32,-0.0590551
1410.37,-0.0590551
1413.42,-0.0590551
1416.48,-0.0590551
1419.53,-0.0590551
1422.59,-0.0590551
1425.64,-0.0590551
1428.7,-0.0590551
1431.75,-0.0590551
1434.81,-0.0590551
1437.86,-0.0590551
1440.92,-0.0590551
1443.97,-0.0590551
1447.03,-0.0590551
1450.08,-0.0590551
1453.14,-0.0590551
1456.19,-0.0590551
1459.24,-0.0590551
1462.3,-0.0590551
1465.35,-0.0590551
1468.41,-0.0590551
1471.46,-0.0590551
1474.52,-0.0590551
1477.57,-0.0590551
1480.63,-0.0590551
1483.68,-0.0590551
1486.74,-0.0590551
1489.79,-0.0590551
1492.85,-0.0590551
1495.9,-0.0590551
1498.95,-0.0590551
1502.01,-0.0590551
1505.06,-0.0590551
1508.12,-0.0590551
1511.17,-0.0590551
1514.23,-0.0590551
1517.28,-0.0590551
1520.34,-0.0590551
1523.39,-0.0590551
1526.45,-0.0590551
1529.5,-0.0590551
1532.56,-0.0590551
1535.61,-0.0590551
1538.67,-0.0590551
1541.72,-0.0590551
1544.77,-0.0590551
1547.83,-0.0590551
1550.88,-0.0590551
1553.94,-0.0590551
1556.99,-0.0590551
1560.05,-0.0590551
1563.1,-0.0590551
1566.16,-0.0590551
1569.21,-0.0590551
1572.27,-0.0590551
1575.32,-0.0590551
1578.38,-0.0590551
1581.43,-0.0590551
1584.49,-0.0590551
1587.54,-0.0590551
1590.59,-0.0590551
1593.65,-0.0590551
1596.7,-0.0590551
1599.76,-0.0590551
1602.81,-0.0590551
1605.87,-0.0590551
1608.92,-0.0590551
1611.98,-0.0590551
1615.03,-0.0590551
1618.09,-0.0590551
1621.14,-0.0590551
1624.2,-0.0590551
1627.25,-0.0590551
1630.31,-0.0590551
1633.36,-0.0590551
1636.41,-0.0590551
1639.47,-0.0590551
1642.52,-0.0590551
1645.58,-0.0590551
1648.63,-0.0590551
1651.69,-0.0590551
1654.74,-0.0590551
1657.8,-0.0590551
1660.85,-0.0590551
1663.91,-0.0590551
1666.96,-0.0590551
1670.02,-0.0590551
1673.07,-0.0590551
1676.13,-0.0590551
1679.18,-0.0590551
1682.23,-0.0590551
1685.29,-0.0590551
1688.34,-0.0590551
1691.4,-0.0590551
1694.45,-0.0590551
1697.51,-0.0590551
1700.56,-0.0590551
1703.62,-0.0590551
1706.67,-0.0590551
1709.73,-0.0590551
1712.78,-0.0590551
1715.84,-0.0590551
1718.89,-0.0590551
1721.95,-0.0590551
1725,-0.0590551
1728.05,-0.0590551
1731.11,-0.0590551
1734.16,-0.0590551
1737.22,-0.0590551
1740.27,-0.0590551
1743.33,-0.0590551
1746.38,-0.0590551
1749.44,-0.0590551
1752.49,-0.0590551
1755.55,-0.0590551
1758.6,-0.0590551
1761.66,-0.0590551
1764.71,-0.0590551
1767.77,-0.0590551
1770.82,-0.0590551
1773.87,-0.0590551
1776.93,-0.0590551
1779.98,-0.0590551
1783.04,-0.0590551
1786.09,-0.0590551
1789.15,-0.0590551
1792.2,-0.0590551
1795.26,-0.0590551
1798.31,-0.0590551
1801.37,-0.0590551
1804.42,-0.0590551
1807.48,-0.0590551
1810.53,-0.0590551
1813.59,-0.0590551
1816.64,-0.0590551
1819.69,-0.0590551
1822.75,-0.0590551
1825.8,-0.0590551
1828.86,-0.0590551
1831.91,-0.0590551
1834.97,-0.0590551
1838.02,-0.0590551
1841.08,-0.0590551
1844.13,-0.0590551
1847.19,-0.0590551
1850.24,-0.0590551
1853.3,-0.0590551
1856.35,-0.0590551
1859.41,-0.0590551
1862.46,-0.0590551
1865.51,-0.0590551
1868.57,-0.0590551
1871.62,-0.0590551
1874.68,-0.0590551
1877.73,-0.0590551
1880.79,-0.0590551
1883.84,-0.0590551
1886.9,-0.0590551
1889.95,-0.0590551
1893.01,-0.0590551
1896.06,-0.0590551
1899.12,-0.0590551
1902.17,-0.0590551
1905.23,-0.0590551
1908.28,-0.0590551
1911.33,-0.0590551
1914.39,-0.0590551
1917.44,-0.0590551
1920.5,-0.0590551
1923.55,-0.0590551
1926.61,-0.0590551
1929.66,-0.0590551
1932.72,-0.0590551
1935.77,-0.0590551
1938.83,-0.0590551
1941.88,-0.0590551
1944.94,-0.0590551
1947.99,-0.0590551
1951.05,-0.0590551
1954.1,-0.0590551
1957.15,-0.0590551
1960.21,-0.0590551
1963.26,-0.0590551
1966.32,-0.0590551
1969.37,-0.0590551
1972.43,-0.0590551
1975.48,-0.0590551
1978.54,-0.0590551
1981.59,-0.0590551
1984.65,-0.0590551
1987.7,-0.0590551
1990.76,-0.0590551
1993.81,-0.0590551
1996.86,-0.0590551
1999.92,-0.0590551
2002.97,-0.0590551
2006.03,-0.0590551
2009.08,-0.0590551
2012.14,-0.0590551
2015.19,-0.0590551
2018.25,-0.0590551
2021.3,-0.0590551
2024.36,-0.0590551
2027.41,-0.0590551
2030.47,-0.0590551
2033.52,-0.0590551
2036.58,-0.0590551
2039.63,-0.0590551
2042.68,-0.0590551
2045.74,-0.0590551
2048.79,-0.0590551
2051.85,-0.0590551
2054.9,-0.0590551
2057.96,-0.0590551
2061.01,-0.0590551
2064.07,-0.0590551
2067.12,-0.0590551
2070.18,-0.0590551
2073.23,-0.0590551
2076.29,-0.0590551
2079.34,-0.0590551
2082.4,-0.0590551
2085.45,-0.0590551
2088.5,-0.0590551
2091.56,-0.0590551
2094.61,-0.0590551
2097.67,-0.0590551
2100.72,-0.0590551
2103.78,-0.0590551
2106.83,-0.0590551
2109.89,-0.0590551
2112.94,-0.0590551
2116,-0.0590551
2119.05,-0.0590551
2122.11,-0.0590551
2125.16,-0.0590551
2128.22,-0.0590551
2131.27,-0.0590551
2134.32,-0.0590551
2137.38,-0.0590551
2140.43,-0.0590551
2143.49,-0.0590551
2146.54,-0.0590551
2149.6,-0.0590551
2152.65,-0.0590551
2155.71,-0.0590551
2158.76,-0.0590551
2161.82,-0.0590551
2164.87,-0.0590551
2167.93,-0.0590551
2170.98,-0.0590551
2174.04,-0.0590551
2177.09,-0.0590551
2180.14,-0.0590551
2183.2,-0.0590551
2186.25,-0.0590551
2189.31,-0.0590551
2192.36,-0.0590551
2195.42,-0.0590551
2198.47,-0.0590551
2201.53,-0.0590551
2204.58,-0.0590551
2207.64,-0.0590551
2210.69,-0.0590551
2213.75,-0.0590551
2216.8,-0.0590551
2219.86,-0.0590551
2222.91,-0.0590551
2225.96,-0.0590551
2229.02,-0.0590551
2232.07,-0.0590551
2235.13,-0.0590551
2238.18,-0.0590551
2241.24,-0.0590551
2244.29,-0.0590551
2247.35,-0.0590551
2250.4,-0.0590551
2253.46,-0.0590551
2256.51,-0.0590551
2259.57,-0.0590551
2262.62,-0.0590551
2265.68,-0.0590551
2268.73,-0.0590551
2271.78,-0.0590551
2274.84,-0.0590551
2277.89,-0.0590551
2280.95,-0.0590551
2284,-0.0590551
2287.06,-0.0590551
2290.11,-0.0590551
2293.17,-0.0590551
